Circuit: * C:\Users\bakaneko\Facultad\Materias\Circuitos Electrónicos II\TPS\REPO-TPS\REPO-DSE\Spice (Diego)\amplifier\amplifier_THD_vs_freq.asc

Direct Newton iteration failed to find .op point.  (Use ".option noopiter" to skip.)
Starting Gmin stepping
Gmin = 10
Gmin = 1.07374
Gmin = 0.115292
Gmin = 0.0123794
Gmin = 0.00132923
Gmin = 0.000142725
Gmin = 1.5325e-005
Gmin = 1.6455e-006
vernier = 0.5
vernier = 0.25
vernier = 0.125
vernier = 0.0625
vernier = 0.03125
vernier = 0.015625
vernier = 0.0078125
vernier = 0.00390625
vernier = 0.00195313
vernier = 0.000976563
Gmin = 2.05688e-006
vernier = 0.000488281
Gmin = 0
Gmin stepping failed

Starting source stepping with srcstepmethod=0
Source Step = 3.0303%
Source Step = 33.3333%
Source Step = 63.6364%
Source Step = 93.9394%
Source stepping succeeded in finding the operating point.

.step n=1
N-Period=4
Fourier components of V(out)
DC component:0.0109297

Harmonic	Frequency	 Fourier 	Normalized	 Phase  	Normalized
 Number 	  [Hz]   	Component	 Component	[degree]	Phase [deg]
    1   	2.000e+01	2.373e+01	1.000e+00	  -11.52°	    0.00°
    2   	4.000e+01	1.028e-03	4.334e-05	    9.45°	   20.97°
    3   	6.000e+01	6.825e-04	2.877e-05	   -1.70°	    9.82°
    4   	8.000e+01	4.724e-04	1.991e-05	    0.95°	   12.47°
    5   	1.000e+02	3.875e-04	1.633e-05	   -1.06°	   10.46°
    6   	1.200e+02	3.174e-04	1.338e-05	    0.99°	   12.51°
    7   	1.400e+02	2.724e-04	1.148e-05	   -0.82°	   10.70°
    8   	1.600e+02	2.367e-04	9.979e-06	    0.83°	   12.35°
    9   	1.800e+02	2.117e-04	8.923e-06	    1.56°	   13.08°
   10   	2.000e+02	1.901e-04	8.012e-06	    0.71°	   12.24°
   11   	2.200e+02	1.767e-04	7.450e-06	    2.46°	   13.98°
   12   	2.400e+02	1.591e-04	6.704e-06	    0.30°	   11.82°
   13   	2.600e+02	1.487e-04	6.268e-06	    1.10°	   12.62°
   14   	2.800e+02	1.362e-04	5.740e-06	   -0.03°	   11.49°
   15   	3.000e+02	1.240e-04	5.226e-06	    0.05°	   11.57°
   16   	3.200e+02	1.190e-04	5.016e-06	    0.08°	   11.60°
   17   	3.400e+02	1.073e-04	4.524e-06	    0.64°	   12.16°
   18   	3.600e+02	1.062e-04	4.476e-06	    0.30°	   11.82°
   19   	3.800e+02	9.880e-05	4.164e-06	    0.63°	   12.15°
   20   	4.000e+02	9.585e-05	4.040e-06	    0.21°	   11.73°
   21   	4.200e+02	9.199e-05	3.878e-06	   -1.06°	   10.46°
   22   	4.400e+02	8.671e-05	3.655e-06	    0.11°	   11.63°
   23   	4.600e+02	8.349e-05	3.519e-06	   -1.92°	    9.60°
   24   	4.800e+02	7.896e-05	3.328e-06	    0.31°	   11.83°
   25   	5.000e+02	7.596e-05	3.202e-06	   -0.17°	   11.35°
   26   	5.200e+02	7.288e-05	3.072e-06	    0.47°	   11.99°
   27   	5.400e+02	7.154e-05	3.015e-06	    1.82°	   13.34°
   28   	5.600e+02	6.783e-05	2.859e-06	    0.20°	   11.72°
   29   	5.800e+02	6.738e-05	2.840e-06	    1.48°	   13.00°
   30   	6.000e+02	6.317e-05	2.663e-06	   -0.15°	   11.37°
Total Harmonic Distortion: 0.006578%(0.038968%)


.step n=2
N-Period=4
Fourier components of V(out)
DC component:0.0274575

Harmonic	Frequency	 Fourier 	Normalized	 Phase  	Normalized
 Number 	  [Hz]   	Component	 Component	[degree]	Phase [deg]
    1   	3.000e+01	2.457e+01	1.000e+00	  -37.37°	    0.00°
    2   	6.000e+01	1.678e-03	6.827e-05	    2.57°	   39.94°
    3   	9.000e+01	9.900e-04	4.029e-05	   -2.47°	   34.90°
    4   	1.200e+02	7.611e-04	3.097e-05	    1.08°	   38.45°
    5   	1.500e+02	5.960e-04	2.425e-05	    0.92°	   38.30°
    6   	1.800e+02	5.085e-04	2.069e-05	    0.28°	   37.66°
    7   	2.100e+02	4.353e-04	1.771e-05	    1.54°	   38.91°
    8   	2.400e+02	3.816e-04	1.553e-05	    0.12°	   37.49°
    9   	2.700e+02	3.373e-04	1.373e-05	    0.03°	   37.40°
   10   	3.000e+02	3.039e-04	1.237e-05	    0.21°	   37.59°
   11   	3.300e+02	2.720e-04	1.107e-05	    1.23°	   38.61°
   12   	3.600e+02	2.545e-04	1.036e-05	    0.35°	   37.72°
   13   	3.900e+02	2.365e-04	9.622e-06	    1.21°	   38.58°
   14   	4.200e+02	2.182e-04	8.879e-06	   -0.01°	   37.36°
   15   	4.500e+02	2.021e-04	8.223e-06	    0.31°	   37.69°
   16   	4.800e+02	1.902e-04	7.738e-06	    0.05°	   37.42°
   17   	5.100e+02	1.790e-04	7.286e-06	    1.62°	   39.00°
   18   	5.400e+02	1.691e-04	6.882e-06	    0.03°	   37.41°
   19   	5.700e+02	1.632e-04	6.642e-06	    0.59°	   37.97°
   20   	6.000e+02	1.516e-04	6.170e-06	    0.12°	   37.49°
   21   	6.300e+02	1.448e-04	5.891e-06	    0.51°	   37.89°
   22   	6.600e+02	1.384e-04	5.631e-06	    0.39°	   37.76°
   23   	6.900e+02	1.347e-04	5.480e-06	    1.24°	   38.62°
   24   	7.200e+02	1.271e-04	5.174e-06	    0.10°	   37.47°
   25   	7.500e+02	1.239e-04	5.041e-06	   -0.22°	   37.15°
   26   	7.800e+02	1.169e-04	4.755e-06	    0.18°	   37.56°
   27   	8.100e+02	1.129e-04	4.594e-06	    0.66°	   38.03°
   28   	8.400e+02	1.089e-04	4.430e-06	    0.29°	   37.67°
   29   	8.700e+02	1.078e-04	4.387e-06	    0.55°	   37.93°
   30   	9.000e+02	1.014e-04	4.128e-06	    0.21°	   37.58°
Total Harmonic Distortion: 0.010057%(0.061943%)

.step n=3
N-Period=4
Fourier components of V(out)
DC component:0.0389039

Harmonic	Frequency	 Fourier 	Normalized	 Phase  	Normalized
 Number 	  [Hz]   	Component	 Component	[degree]	Phase [deg]
    1   	4.000e+01	2.489e+01	1.000e+00	  -59.45°	    0.00°
    2   	8.000e+01	1.553e-03	6.240e-05	   -2.60°	   56.85°
    3   	1.200e+02	8.730e-04	3.507e-05	    0.30°	   59.74°
    4   	1.600e+02	7.106e-04	2.855e-05	    0.31°	   59.76°
    5   	2.000e+02	5.729e-04	2.302e-05	    1.29°	   60.74°
    6   	2.400e+02	4.684e-04	1.882e-05	    0.27°	   59.72°
    7   	2.800e+02	4.075e-04	1.637e-05	   -1.01°	   58.44°
    8   	3.200e+02	3.526e-04	1.416e-05	    0.41°	   59.85°
    9   	3.600e+02	3.150e-04	1.266e-05	    0.32°	   59.76°
   10   	4.000e+02	2.836e-04	1.139e-05	   -0.08°	   59.36°
   11   	4.400e+02	2.555e-04	1.026e-05	   -1.49°	   57.96°
   12   	4.800e+02	2.344e-04	9.418e-06	    0.07°	   59.52°
   13   	5.200e+02	2.131e-04	8.560e-06	    0.83°	   60.28°
   14   	5.600e+02	2.023e-04	8.128e-06	   -0.03°	   59.42°
   15   	6.000e+02	1.873e-04	7.524e-06	    0.03°	   59.47°
   16   	6.400e+02	1.758e-04	7.063e-06	   -0.14°	   59.31°
   17   	6.800e+02	1.665e-04	6.687e-06	    1.56°	   61.00°
   18   	7.200e+02	1.561e-04	6.271e-06	    0.04°	   59.49°
   19   	7.600e+02	1.515e-04	6.085e-06	   -0.61°	   58.84°
   20   	8.000e+02	1.410e-04	5.664e-06	    0.49°	   59.93°
   21   	8.400e+02	1.349e-04	5.418e-06	    0.04°	   59.49°
   22   	8.800e+02	1.291e-04	5.188e-06	   -0.09°	   59.35°
   23   	9.200e+02	1.226e-04	4.927e-06	   -1.46°	   57.99°
   24   	9.600e+02	1.174e-04	4.718e-06	   -0.02°	   59.42°
   25   	1.000e+03	1.107e-04	4.447e-06	    0.64°	   60.08°
   26   	1.040e+03	1.088e-04	4.369e-06	   -0.21°	   59.24°
   27   	1.080e+03	1.042e-04	4.184e-06	   -0.24°	   59.21°
   28   	1.120e+03	1.003e-04	4.029e-06	   -0.05°	   59.39°
   29   	1.160e+03	9.663e-05	3.882e-06	    1.59°	   61.03°
   30   	1.200e+03	9.370e-05	3.764e-06	    0.03°	   59.47°
Total Harmonic Distortion: 0.009153%(0.058948%)

.step n=4
N-Period=4
Fourier components of V(out)
DC component:0.0421597

Harmonic	Frequency	 Fourier 	Normalized	 Phase  	Normalized
 Number 	  [Hz]   	Component	 Component	[degree]	Phase [deg]
    1   	5.000e+01	2.504e+01	1.000e+00	  -79.93°	    0.00°
    2   	1.000e+02	7.748e-04	3.094e-05	  -14.45°	   65.48°
    3   	1.500e+02	4.306e-04	1.720e-05	    5.65°	   85.57°
    4   	2.000e+02	3.480e-04	1.390e-05	   -2.58°	   77.35°
    5   	2.500e+02	2.856e-04	1.140e-05	   -3.55°	   76.38°
    6   	3.000e+02	2.323e-04	9.276e-06	   -0.86°	   79.07°
    7   	3.500e+02	1.887e-04	7.534e-06	    0.14°	   80.07°
    8   	4.000e+02	1.730e-04	6.908e-06	   -1.63°	   78.30°
    9   	4.500e+02	1.519e-04	6.065e-06	   -1.35°	   78.58°
   10   	5.000e+02	1.367e-04	5.461e-06	   -0.01°	   79.92°
   11   	5.500e+02	1.308e-04	5.223e-06	    1.35°	   81.28°
   12   	6.000e+02	1.152e-04	4.602e-06	   -0.97°	   78.96°
   13   	6.500e+02	1.037e-04	4.140e-06	   -3.08°	   76.85°
   14   	7.000e+02	9.888e-05	3.949e-06	   -0.10°	   79.83°
   15   	7.500e+02	9.150e-05	3.654e-06	   -0.70°	   79.22°
   16   	8.000e+02	8.600e-05	3.434e-06	   -0.95°	   78.98°
   17   	8.500e+02	8.043e-05	3.212e-06	    2.68°	   82.61°
   18   	9.000e+02	7.582e-05	3.028e-06	   -0.26°	   79.66°
   19   	9.500e+02	7.475e-05	2.985e-06	   -2.67°	   77.26°
   20   	1.000e+03	6.995e-05	2.793e-06	    0.35°	   80.27°
   21   	1.050e+03	6.558e-05	2.619e-06	   -0.62°	   79.31°
   22   	1.100e+03	6.221e-05	2.484e-06	   -1.31°	   78.62°
   23   	1.150e+03	5.695e-05	2.274e-06	    0.69°	   80.62°
   24   	1.200e+03	5.743e-05	2.293e-06	   -0.02°	   79.91°
   25   	1.250e+03	5.781e-05	2.308e-06	   -0.10°	   79.83°
   26   	1.300e+03	5.274e-05	2.106e-06	    0.24°	   80.17°
   27   	1.350e+03	5.122e-05	2.045e-06	    0.12°	   80.05°
   28   	1.400e+03	4.973e-05	1.986e-06	   -0.52°	   79.41°
   29   	1.450e+03	4.606e-05	1.839e-06	   -3.13°	   76.80°
   30   	1.500e+03	4.599e-05	1.837e-06	   -0.69°	   79.24°
Total Harmonic Distortion: 0.004499%(0.034521%)

.step n=5
N-Period=4
Fourier components of V(out)
DC component:0.0372017

Harmonic	Frequency	 Fourier 	Normalized	 Phase  	Normalized
 Number 	  [Hz]   	Component	 Component	[degree]	Phase [deg]
    1   	6.000e+01	2.513e+01	1.000e+00	  -99.60°	    0.00°
    2   	1.200e+02	5.554e-04	2.210e-05	 -153.07°	  -53.47°
    3   	1.800e+02	2.633e-04	1.048e-05	  176.43°	  276.03°
    4   	2.400e+02	2.313e-04	9.204e-06	 -173.14°	  -73.54°
    5   	3.000e+02	1.938e-04	7.713e-06	 -173.33°	  -73.73°
    6   	3.600e+02	1.506e-04	5.996e-06	 -174.74°	  -75.14°
    7   	4.200e+02	1.199e-04	4.773e-06	 -177.48°	  -77.88°
    8   	4.800e+02	1.142e-04	4.547e-06	 -178.13°	  -78.53°
    9   	5.400e+02	9.910e-05	3.944e-06	 -178.30°	  -78.70°
   10   	6.000e+02	8.984e-05	3.576e-06	 -176.07°	  -76.47°
   11   	6.600e+02	8.915e-05	3.548e-06	 -177.42°	  -77.82°
   12   	7.200e+02	7.463e-05	2.970e-06	 -178.64°	  -79.04°
   13   	7.800e+02	6.411e-05	2.552e-06	 -177.06°	  -77.46°
   14   	8.400e+02	6.511e-05	2.592e-06	 -178.67°	  -79.07°
   15   	9.000e+02	6.015e-05	2.394e-06	 -177.92°	  -78.32°
   16   	9.600e+02	5.597e-05	2.227e-06	 -177.78°	  -78.18°
   17   	1.020e+03	5.585e-05	2.223e-06	  177.82°	  277.42°
   18   	1.080e+03	5.101e-05	2.030e-06	 -178.75°	  -79.15°
   19   	1.140e+03	4.602e-05	1.832e-06	 -174.27°	  -74.67°
   20   	1.200e+03	4.356e-05	1.734e-06	 -178.82°	  -79.22°
   21   	1.260e+03	4.332e-05	1.724e-06	 -178.86°	  -79.26°
   22   	1.320e+03	4.237e-05	1.687e-06	 -179.24°	  -79.64°
   23   	1.380e+03	3.833e-05	1.526e-06	  176.62°	  276.22°
   24   	1.440e+03	3.728e-05	1.484e-06	 -178.69°	  -79.09°
   25   	1.500e+03	3.780e-05	1.504e-06	 -175.48°	  -75.88°
   26   	1.560e+03	3.424e-05	1.363e-06	 -178.47°	  -78.87°
   27   	1.620e+03	3.342e-05	1.330e-06	 -178.57°	  -78.97°
   28   	1.680e+03	3.267e-05	1.300e-06	 -179.89°	  -80.29°
   29   	1.740e+03	2.866e-05	1.141e-06	  177.93°	  277.53°
   30   	1.800e+03	2.981e-05	1.187e-06	 -179.71°	  -80.11°
Total Harmonic Distortion: 0.003052%(0.022622%)

.step n=6
N-Period=4
Fourier components of V(out)
DC component:0.0253657

Harmonic	Frequency	 Fourier 	Normalized	 Phase  	Normalized
 Number 	  [Hz]   	Component	 Component	[degree]	Phase [deg]
    1   	7.000e+01	2.518e+01	1.000e+00	 -118.80°	    0.00°
    2   	1.400e+02	1.931e-03	7.669e-05	 -172.94°	  -54.14°
    3   	2.100e+02	1.122e-03	4.457e-05	 -176.76°	  -57.96°
    4   	2.800e+02	8.984e-04	3.568e-05	 -177.95°	  -59.15°
    5   	3.500e+02	7.203e-04	2.861e-05	 -179.21°	  -60.41°
    6   	4.200e+02	5.994e-04	2.381e-05	 -178.56°	  -59.76°
    7   	4.900e+02	5.158e-04	2.049e-05	 -177.76°	  -58.96°
    8   	5.600e+02	4.445e-04	1.766e-05	 -178.60°	  -59.80°
    9   	6.300e+02	3.983e-04	1.582e-05	 -178.65°	  -59.85°
   10   	7.000e+02	3.576e-04	1.420e-05	 -179.50°	  -60.70°
   11   	7.700e+02	3.185e-04	1.265e-05	 -178.66°	  -59.86°
   12   	8.400e+02	2.994e-04	1.189e-05	 -179.19°	  -60.39°
   13   	9.100e+02	2.765e-04	1.098e-05	  179.57°	  298.37°
   14   	9.800e+02	2.560e-04	1.017e-05	 -179.17°	  -60.37°
   15   	1.050e+03	2.381e-04	9.458e-06	 -179.32°	  -60.52°
   16   	1.120e+03	2.228e-04	8.850e-06	 -179.41°	  -60.61°
   17   	1.190e+03	2.148e-04	8.531e-06	 -179.77°	  -60.97°
   18   	1.260e+03	1.997e-04	7.932e-06	 -179.43°	  -60.63°
   19   	1.330e+03	1.867e-04	7.413e-06	 -178.36°	  -59.56°
   20   	1.400e+03	1.772e-04	7.040e-06	 -179.31°	  -60.51°
   21   	1.470e+03	1.706e-04	6.776e-06	 -179.69°	  -60.89°
   22   	1.540e+03	1.630e-04	6.474e-06	  179.88°	  298.68°
   23   	1.610e+03	1.524e-04	6.053e-06	 -179.45°	  -60.65°
   24   	1.680e+03	1.494e-04	5.935e-06	 -179.49°	  -60.69°
   25   	1.750e+03	1.446e-04	5.743e-06	  179.34°	  298.14°
   26   	1.820e+03	1.382e-04	5.490e-06	 -179.63°	  -60.83°
   27   	1.890e+03	1.327e-04	5.270e-06	 -179.75°	  -60.95°
   28   	1.960e+03	1.273e-04	5.057e-06	 -179.43°	  -60.63°
   29   	2.030e+03	1.262e-04	5.014e-06	 -179.24°	  -60.44°
   30   	2.100e+03	1.196e-04	4.750e-06	 -179.65°	  -60.85°
Total Harmonic Distortion: 0.011388%(0.068109%)

.step n=7
N-Period=4
Fourier components of V(out)
DC component:0.00850307

Harmonic	Frequency	 Fourier 	Normalized	 Phase  	Normalized
 Number 	  [Hz]   	Component	 Component	[degree]	Phase [deg]
    1   	8.000e+01	2.521e+01	1.000e+00	 -137.70°	    0.00°
    2   	1.600e+02	3.302e-03	1.310e-04	 -176.98°	  -39.27°
    3   	2.400e+02	2.058e-03	8.162e-05	 -176.12°	  -38.42°
    4   	3.200e+02	1.567e-03	6.216e-05	 -178.52°	  -40.82°
    5   	4.000e+02	1.243e-03	4.929e-05	 -178.82°	  -41.12°
    6   	4.800e+02	1.045e-03	4.144e-05	 -179.05°	  -41.34°
    7   	5.600e+02	9.006e-04	3.572e-05	 -179.62°	  -41.92°
    8   	6.400e+02	7.892e-04	3.130e-05	 -179.20°	  -41.49°
    9   	7.200e+02	6.980e-04	2.769e-05	 -179.46°	  -41.76°
   10   	8.000e+02	6.292e-04	2.496e-05	 -179.06°	  -41.36°
   11   	8.800e+02	5.765e-04	2.286e-05	 -179.93°	  -42.23°
   12   	9.600e+02	5.226e-04	2.073e-05	 -179.34°	  -41.64°
   13   	1.040e+03	4.879e-04	1.935e-05	 -179.04°	  -41.34°
   14   	1.120e+03	4.481e-04	1.777e-05	 -179.48°	  -41.78°
   15   	1.200e+03	4.186e-04	1.660e-05	 -179.59°	  -41.89°
   16   	1.280e+03	3.924e-04	1.556e-05	 -179.67°	  -41.97°
   17   	1.360e+03	3.738e-04	1.483e-05	 -179.29°	  -41.59°
   18   	1.440e+03	3.500e-04	1.388e-05	 -179.53°	  -41.83°
   19   	1.520e+03	3.287e-04	1.304e-05	 -178.99°	  -41.29°
   20   	1.600e+03	3.128e-04	1.240e-05	 -179.42°	  -41.72°
   21   	1.680e+03	2.992e-04	1.186e-05	 -179.79°	  -42.09°
   22   	1.760e+03	2.844e-04	1.128e-05	 -179.96°	  -42.26°
   23   	1.840e+03	2.726e-04	1.081e-05	 -179.04°	  -41.34°
   24   	1.920e+03	2.622e-04	1.040e-05	 -179.83°	  -42.13°
   25   	2.000e+03	2.483e-04	9.849e-06	 -179.86°	  -42.16°
   26   	2.080e+03	2.413e-04	9.570e-06	 -179.87°	  -42.17°
   27   	2.160e+03	2.325e-04	9.222e-06	 -179.74°	  -42.04°
   28   	2.240e+03	2.250e-04	8.925e-06	 -179.90°	  -42.20°
   29   	2.320e+03	2.136e-04	8.472e-06	 -179.98°	  -42.28°
   30   	2.400e+03	2.092e-04	8.297e-06	 -179.76°	  -42.06°
Total Harmonic Distortion: 0.019838%(0.120140%)

.step n=8
N-Period=4
Fourier components of V(out)
DC component:-0.0115618

Harmonic	Frequency	 Fourier 	Normalized	 Phase  	Normalized
 Number 	  [Hz]   	Component	 Component	[degree]	Phase [deg]
    1   	9.000e+01	2.524e+01	1.000e+00	 -156.40°	    0.00°
    2   	1.800e+02	4.513e-03	1.788e-04	 -178.69°	  -22.29°
    3   	2.700e+02	2.958e-03	1.172e-04	 -176.94°	  -20.54°
    4   	3.600e+02	2.191e-03	8.680e-05	 -178.58°	  -22.18°
    5   	4.500e+02	1.756e-03	6.956e-05	 -178.44°	  -22.04°
    6   	5.400e+02	1.463e-03	5.795e-05	 -178.95°	  -22.55°
    7   	6.300e+02	1.247e-03	4.941e-05	 -179.04°	  -22.64°
    8   	7.200e+02	1.095e-03	4.338e-05	 -179.40°	  -23.00°
    9   	8.100e+02	9.762e-04	3.868e-05	 -179.23°	  -22.83°
   10   	9.000e+02	8.776e-04	3.477e-05	 -179.66°	  -23.26°
   11   	9.900e+02	7.964e-04	3.155e-05	 -178.99°	  -22.59°
   12   	1.080e+03	7.326e-04	2.903e-05	 -179.68°	  -23.28°
   13   	1.170e+03	6.704e-04	2.656e-05	 -179.41°	  -23.01°
   14   	1.260e+03	6.276e-04	2.487e-05	 -179.69°	  -23.29°
   15   	1.350e+03	5.861e-04	2.322e-05	 -179.69°	  -23.29°
   16   	1.440e+03	5.496e-04	2.178e-05	 -179.73°	  -23.33°
   17   	1.530e+03	5.185e-04	2.054e-05	 -179.19°	  -22.79°
   18   	1.620e+03	4.888e-04	1.937e-05	 -179.58°	  -23.18°
   19   	1.710e+03	4.599e-04	1.822e-05	 -179.26°	  -22.87°
   20   	1.800e+03	4.382e-04	1.736e-05	 -179.49°	  -23.09°
   21   	1.890e+03	4.180e-04	1.656e-05	 -179.81°	  -23.41°
   22   	1.980e+03	3.975e-04	1.575e-05	 -179.71°	  -23.31°
   23   	2.070e+03	3.849e-04	1.525e-05	 -179.49°	  -23.09°
   24   	2.160e+03	3.656e-04	1.448e-05	 -179.82°	  -23.42°
   25   	2.250e+03	3.518e-04	1.394e-05	 -179.25°	  -22.85°
   26   	2.340e+03	3.378e-04	1.339e-05	 -179.67°	  -23.27°
   27   	2.430e+03	3.257e-04	1.291e-05	 -179.78°	  -23.38°
   28   	2.520e+03	3.131e-04	1.241e-05	 -179.71°	  -23.31°
   29   	2.610e+03	3.063e-04	1.214e-05	 -179.64°	  -23.24°
   30   	2.700e+03	2.932e-04	1.162e-05	 -179.83°	  -23.43°
Total Harmonic Distortion: 0.027571%(0.169267%)

.step n=9
N-Period=4
Fourier components of V(out)
DC component:-0.033296

Harmonic	Frequency	 Fourier 	Normalized	 Phase  	Normalized
 Number 	  [Hz]   	Component	 Component	[degree]	Phase [deg]
    1   	1.000e+02	2.526e+01	1.000e+00	 -174.96°	    0.00°
    2   	2.000e+02	5.516e-03	2.184e-04	 -179.33°	   -4.38°
    3   	3.000e+02	3.725e-03	1.475e-04	 -178.24°	   -3.29°
    4   	4.000e+02	2.743e-03	1.086e-04	 -178.69°	   -3.73°
    5   	5.000e+02	2.209e-03	8.744e-05	 -179.03°	   -4.08°
    6   	6.000e+02	1.833e-03	7.257e-05	 -179.19°	   -4.23°
    7   	7.000e+02	1.576e-03	6.239e-05	 -179.18°	   -4.23°
    8   	8.000e+02	1.374e-03	5.440e-05	 -179.26°	   -4.31°
    9   	9.000e+02	1.220e-03	4.831e-05	 -179.61°	   -4.65°
   10   	1.000e+03	1.099e-03	4.351e-05	 -179.36°	   -4.40°
   11   	1.100e+03	9.972e-04	3.948e-05	  179.98°	  354.93°
   12   	1.200e+03	9.155e-04	3.625e-05	 -179.51°	   -4.55°
   13   	1.300e+03	8.452e-04	3.346e-05	  179.94°	  354.90°
   14   	1.400e+03	7.846e-04	3.106e-05	 -179.66°	   -4.71°
   15   	1.500e+03	7.320e-04	2.898e-05	 -179.69°	   -4.73°
   16   	1.600e+03	6.864e-04	2.717e-05	 -179.71°	   -4.76°
   17   	1.700e+03	6.430e-04	2.546e-05	 -179.35°	   -4.40°
   18   	1.800e+03	6.095e-04	2.413e-05	 -179.63°	   -4.67°
   19   	1.900e+03	5.739e-04	2.272e-05	 -179.44°	   -4.48°
   20   	2.000e+03	5.476e-04	2.168e-05	 -179.53°	   -4.58°
   21   	2.100e+03	5.215e-04	2.065e-05	 -179.80°	   -4.84°
   22   	2.200e+03	4.975e-04	1.970e-05	 -179.56°	   -4.60°
   23   	2.300e+03	4.798e-04	1.900e-05	 -180.00°	   -5.04°
   24   	2.400e+03	4.567e-04	1.808e-05	 -179.70°	   -4.75°
   25   	2.500e+03	4.421e-04	1.751e-05	 -179.92°	   -4.96°
   26   	2.600e+03	4.227e-04	1.674e-05	 -179.84°	   -4.89°
   27   	2.700e+03	4.063e-04	1.609e-05	 -179.85°	   -4.90°
   28   	2.800e+03	3.928e-04	1.555e-05	 -179.88°	   -4.92°
   29   	2.900e+03	3.750e-04	1.485e-05	  179.98°	  354.93°
   30   	3.000e+03	3.656e-04	1.447e-05	 -179.84°	   -4.88°
Total Harmonic Distortion: 0.034204%(0.212467%)

.step n=10
N-Period=4
Fourier components of V(out)
DC component:-0.206615

Harmonic	Frequency	 Fourier 	Normalized	 Phase  	Normalized
 Number 	  [Hz]   	Component	 Component	[degree]	Phase [deg]
    1   	2.000e+02	2.528e+01	1.000e+00	    2.50°	    0.00°
    2   	4.000e+02	8.669e-03	3.429e-04	 -179.99°	 -182.49°
    3   	6.000e+02	5.686e-03	2.249e-04	 -179.31°	 -181.81°
    4   	8.000e+02	4.322e-03	1.710e-04	 -179.37°	 -181.87°
    5   	1.000e+03	3.438e-03	1.360e-04	 -179.46°	 -181.97°
    6   	1.200e+03	2.887e-03	1.142e-04	 -179.61°	 -182.12°
    7   	1.400e+03	2.457e-03	9.720e-05	 -179.70°	 -182.20°
    8   	1.600e+03	2.167e-03	8.570e-05	 -179.62°	 -182.13°
    9   	1.800e+03	1.918e-03	7.587e-05	 -179.61°	 -182.11°
   10   	2.000e+03	1.734e-03	6.860e-05	 -179.66°	 -182.17°
   11   	2.200e+03	1.572e-03	6.218e-05	 -179.43°	 -181.93°
   12   	2.400e+03	1.444e-03	5.711e-05	 -179.76°	 -182.26°
   13   	2.600e+03	1.329e-03	5.255e-05	 -179.45°	 -181.96°
   14   	2.800e+03	1.235e-03	4.886e-05	 -179.86°	 -182.37°
   15   	3.000e+03	1.150e-03	4.550e-05	 -179.82°	 -182.32°
   16   	3.200e+03	1.080e-03	4.270e-05	 -179.89°	 -182.40°
   17   	3.400e+03	1.017e-03	4.021e-05	  179.76°	  177.25°
   18   	3.600e+03	9.600e-04	3.797e-05	 -179.80°	 -182.31°
   19   	3.800e+03	9.119e-04	3.607e-05	  179.67°	  177.17°
   20   	4.000e+03	8.654e-04	3.423e-05	 -179.66°	 -182.16°
   21   	4.200e+03	8.246e-04	3.261e-05	 -180.00°	 -182.50°
   22   	4.400e+03	7.875e-04	3.115e-05	 -179.61°	 -182.11°
   23   	4.600e+03	7.498e-04	2.966e-05	 -179.61°	 -182.11°
   24   	4.800e+03	7.214e-04	2.854e-05	 -179.75°	 -182.25°
   25   	5.000e+03	6.880e-04	2.721e-05	 -179.58°	 -182.08°
   26   	5.200e+03	6.647e-04	2.629e-05	  180.00°	  177.49°
   27   	5.400e+03	6.394e-04	2.529e-05	 -179.92°	 -182.43°
   28   	5.600e+03	6.162e-04	2.437e-05	  179.84°	  177.34°
   29   	5.800e+03	6.000e-04	2.373e-05	  179.74°	  177.23°
   30   	6.000e+03	5.749e-04	2.274e-05	  179.95°	  177.44°
Total Harmonic Distortion: 0.053420%(0.341259%)

.step n=11
N-Period=4
Fourier components of V(out)
DC component:-0.266297

Harmonic	Frequency	 Fourier 	Normalized	 Phase  	Normalized
 Number 	  [Hz]   	Component	 Component	[degree]	Phase [deg]
    1   	3.000e+02	2.532e+01	1.000e+00	 -178.35°	    0.00°
    2   	6.000e+02	7.057e-03	2.787e-04	  179.41°	  357.76°
    3   	9.000e+02	4.745e-03	1.874e-04	 -179.58°	   -1.22°
    4   	1.200e+03	3.515e-03	1.388e-04	 -179.53°	   -1.17°
    5   	1.500e+03	2.821e-03	1.114e-04	 -179.97°	   -1.62°
    6   	1.800e+03	2.351e-03	9.283e-05	 -179.73°	   -1.37°
    7   	2.100e+03	2.013e-03	7.950e-05	 -179.85°	   -1.50°
    8   	2.400e+03	1.766e-03	6.973e-05	 -179.69°	   -1.33°
    9   	2.700e+03	1.559e-03	6.156e-05	  179.89°	  358.25°
   10   	3.000e+03	1.414e-03	5.585e-05	 -179.71°	   -1.35°
   11   	3.300e+03	1.273e-03	5.025e-05	  179.52°	  357.87°
   12   	3.600e+03	1.176e-03	4.645e-05	 -179.81°	   -1.45°
   13   	3.900e+03	1.078e-03	4.259e-05	  179.47°	  357.82°
   14   	4.200e+03	1.004e-03	3.966e-05	 -179.93°	   -1.57°
   15   	4.500e+03	9.362e-04	3.697e-05	  179.98°	  358.34°
   16   	4.800e+03	8.764e-04	3.461e-05	 -179.96°	   -1.61°
   17   	5.100e+03	8.246e-04	3.257e-05	 -179.32°	   -0.96°
   18   	5.400e+03	7.801e-04	3.081e-05	 -179.84°	   -1.49°
   19   	5.700e+03	7.352e-04	2.903e-05	 -179.10°	   -0.75°
   20   	6.000e+03	7.052e-04	2.785e-05	 -179.64°	   -1.28°
   21   	6.300e+03	6.649e-04	2.626e-05	 -179.63°	   -1.28°
   22   	6.600e+03	6.431e-04	2.540e-05	 -179.54°	   -1.19°
   23   	6.900e+03	6.101e-04	2.409e-05	  179.62°	  357.97°
   24   	7.200e+03	5.884e-04	2.323e-05	 -179.70°	   -1.35°
   25   	7.500e+03	5.637e-04	2.226e-05	  179.42°	  357.78°
   26   	7.800e+03	5.397e-04	2.131e-05	  179.94°	  358.30°
   27   	8.100e+03	5.202e-04	2.054e-05	 -179.99°	   -1.63°
   28   	8.400e+03	4.984e-04	1.968e-05	  179.68°	  358.03°
   29   	8.700e+03	4.794e-04	1.893e-05	 -179.19°	   -0.83°
   30   	9.000e+03	4.652e-04	1.837e-05	  179.79°	  358.14°
Total Harmonic Distortion: 0.043626%(0.277818%)

.step n=12
N-Period=4
Fourier components of V(out)
DC component:-0.275367

Harmonic	Frequency	 Fourier 	Normalized	 Phase  	Normalized
 Number 	  [Hz]   	Component	 Component	[degree]	Phase [deg]
    1   	4.000e+02	2.530e+01	1.000e+00	    1.21°	    0.00°
    2   	8.000e+02	5.391e-03	2.131e-04	  178.83°	  177.62°
    3   	1.200e+03	3.486e-03	1.378e-04	 -179.51°	 -180.72°
    4   	1.600e+03	2.679e-03	1.059e-04	 -179.58°	 -180.79°
    5   	2.000e+03	2.118e-03	8.371e-05	 -179.31°	 -180.52°
    6   	2.400e+03	1.796e-03	7.099e-05	 -179.78°	 -180.99°
    7   	2.800e+03	1.515e-03	5.986e-05	 -179.71°	 -180.92°
    8   	3.200e+03	1.351e-03	5.340e-05	 -179.69°	 -180.90°
    9   	3.600e+03	1.185e-03	4.684e-05	 -179.42°	 -180.63°
   10   	4.000e+03	1.083e-03	4.281e-05	 -179.70°	 -180.91°
   11   	4.400e+03	9.726e-04	3.844e-05	 -178.89°	 -180.10°
   12   	4.800e+03	8.994e-04	3.555e-05	 -179.82°	 -181.03°
   13   	5.200e+03	8.211e-04	3.245e-05	 -178.85°	 -180.06°
   14   	5.600e+03	7.654e-04	3.025e-05	 -179.97°	 -181.18°
   15   	6.000e+03	7.098e-04	2.805e-05	 -179.74°	 -180.95°
   16   	6.400e+03	6.665e-04	2.634e-05	  179.98°	  178.77°
   17   	6.800e+03	6.280e-04	2.482e-05	  179.04°	  177.83°
   18   	7.200e+03	5.943e-04	2.349e-05	 -179.85°	 -181.06°
   19   	7.600e+03	5.650e-04	2.233e-05	  178.63°	  177.42°
   20   	8.000e+03	5.395e-04	2.132e-05	 -179.56°	 -180.77°
   21   	8.400e+03	5.114e-04	2.021e-05	  179.48°	  178.27°
   22   	8.800e+03	4.933e-04	1.950e-05	 -179.42°	 -180.63°
   23   	9.200e+03	4.638e-04	1.833e-05	 -179.23°	 -180.44°
   24   	9.600e+03	4.502e-04	1.779e-05	 -179.63°	 -180.84°
   25   	1.000e+04	4.239e-04	1.676e-05	 -178.84°	 -180.05°
   26   	1.040e+04	4.102e-04	1.621e-05	  179.87°	  178.66°
   27   	1.080e+04	3.941e-04	1.557e-05	 -179.90°	 -181.11°
   28   	1.120e+04	3.768e-04	1.489e-05	  179.48°	  178.27°
   29   	1.160e+04	3.723e-04	1.471e-05	  178.62°	  177.41°
   30   	1.200e+04	3.522e-04	1.392e-05	  179.64°	  178.43°
Total Harmonic Distortion: 0.033056%(0.211797%)

.step n=13
N-Period=4
Fourier components of V(out)
DC component:-0.266676

Harmonic	Frequency	 Fourier 	Normalized	 Phase  	Normalized
 Number 	  [Hz]   	Component	 Component	[degree]	Phase [deg]
    1   	5.000e+02	2.532e+01	1.000e+00	 -179.06°	    0.00°
    2   	1.000e+03	4.162e-03	1.644e-04	  178.21°	  357.27°
    3   	1.500e+03	2.799e-03	1.106e-04	 -179.98°	   -0.92°
    4   	2.000e+03	2.062e-03	8.144e-05	 -179.59°	   -0.54°
    5   	2.500e+03	1.653e-03	6.529e-05	  179.37°	  358.43°
    6   	3.000e+03	1.387e-03	5.477e-05	 -179.81°	   -0.76°
    7   	3.500e+03	1.179e-03	4.655e-05	  179.87°	  358.93°
    8   	4.000e+03	1.045e-03	4.128e-05	 -179.68°	   -0.62°
    9   	4.500e+03	9.096e-04	3.592e-05	  179.34°	  358.40°
   10   	5.000e+03	8.393e-04	3.315e-05	 -179.67°	   -0.61°
   11   	5.500e+03	7.418e-04	2.930e-05	  178.45°	  357.51°
   12   	6.000e+03	6.952e-04	2.745e-05	 -179.81°	   -0.75°
   13   	6.500e+03	6.298e-04	2.487e-05	  178.34°	  357.40°
   14   	7.000e+03	5.889e-04	2.325e-05	  179.98°	  359.04°
   15   	7.500e+03	5.474e-04	2.162e-05	  179.71°	  358.77°
   16   	8.000e+03	5.114e-04	2.019e-05	  179.90°	  358.96°
   17   	8.500e+03	4.814e-04	1.901e-05	 -178.35°	    0.71°
   18   	9.000e+03	4.570e-04	1.805e-05	 -179.88°	   -0.82°
   19   	9.500e+03	4.276e-04	1.689e-05	 -177.62°	    1.44°
   20   	1.000e+04	4.175e-04	1.649e-05	 -179.48°	   -0.42°
   21   	1.050e+04	3.861e-04	1.525e-05	 -178.95°	    0.10°
   22   	1.100e+04	3.832e-04	1.513e-05	 -179.26°	   -0.20°
   23   	1.150e+04	3.560e-04	1.406e-05	  178.91°	  357.96°
   24   	1.200e+04	3.485e-04	1.376e-05	 -179.52°	   -0.46°
   25   	1.250e+04	3.308e-04	1.306e-05	  178.22°	  357.28°
   26   	1.300e+04	3.146e-04	1.242e-05	  179.80°	  358.86°
   27   	1.350e+04	3.047e-04	1.203e-05	  179.87°	  358.92°
   28   	1.400e+04	2.867e-04	1.132e-05	  179.24°	  358.30°
   29   	1.450e+04	2.784e-04	1.099e-05	 -177.56°	    1.50°
   30   	1.500e+04	2.685e-04	1.060e-05	  179.43°	  358.49°
Total Harmonic Distortion: 0.025683%(0.162551%)

.step n=14
N-Period=4
Fourier components of V(out)
DC component:-0.2523

Harmonic	Frequency	 Fourier 	Normalized	 Phase  	Normalized
 Number 	  [Hz]   	Component	 Component	[degree]	Phase [deg]
    1   	6.000e+02	2.531e+01	1.000e+00	    0.76°	    0.00°
    2   	1.200e+03	3.290e-03	1.300e-04	  177.55°	  176.79°
    3   	1.800e+03	2.068e-03	8.173e-05	 -179.31°	 -180.07°
    4   	2.400e+03	1.623e-03	6.414e-05	 -179.59°	 -180.35°
    5   	3.000e+03	1.268e-03	5.011e-05	 -178.59°	 -179.35°
    6   	3.600e+03	1.097e-03	4.333e-05	 -179.84°	 -180.60°
    7   	4.200e+03	9.080e-04	3.588e-05	 -179.47°	 -180.23°
    8   	4.800e+03	8.287e-04	3.275e-05	 -179.65°	 -180.41°
    9   	5.400e+03	7.137e-04	2.820e-05	 -178.76°	 -179.52°
   10   	6.000e+03	6.665e-04	2.634e-05	 -179.62°	 -180.38°
   11   	6.600e+03	5.868e-04	2.319e-05	 -177.49°	 -178.25°
   12   	7.200e+03	5.501e-04	2.174e-05	 -179.79°	 -180.55°
   13   	7.800e+03	4.942e-04	1.953e-05	 -177.34°	 -178.10°
   14   	8.400e+03	4.630e-04	1.830e-05	  179.92°	  179.16°
   15   	9.000e+03	4.260e-04	1.683e-05	 -179.43°	 -180.19°
   16   	9.600e+03	4.007e-04	1.583e-05	  179.80°	  179.04°
   17   	1.020e+04	3.783e-04	1.495e-05	  177.60°	  176.85°
   18   	1.080e+04	3.595e-04	1.421e-05	 -179.92°	 -180.68°
   19   	1.140e+04	3.425e-04	1.353e-05	  176.54°	  175.78°
   20   	1.200e+04	3.312e-04	1.309e-05	 -179.38°	 -180.14°
   21   	1.260e+04	3.099e-04	1.225e-05	  178.53°	  177.77°
   22   	1.320e+04	3.053e-04	1.206e-05	 -179.06°	 -179.82°
   23   	1.380e+04	2.792e-04	1.103e-05	 -178.23°	 -178.99°
   24   	1.440e+04	2.761e-04	1.091e-05	 -179.39°	 -180.15°
   25   	1.500e+04	2.534e-04	1.001e-05	 -177.12°	 -177.88°
   26   	1.560e+04	2.460e-04	9.720e-06	  179.69°	  178.93°
   27   	1.620e+04	2.358e-04	9.317e-06	 -179.76°	 -180.52°
   28   	1.680e+04	2.221e-04	8.776e-06	  178.91°	  178.15°
   29   	1.740e+04	2.261e-04	8.933e-06	  176.32°	  175.57°
   30   	1.800e+04	2.088e-04	8.251e-06	  179.18°	  178.42°
Total Harmonic Distortion: 0.020003%(0.127514%)

.step n=15
N-Period=4
Fourier components of V(out)
DC component:-0.236737

Harmonic	Frequency	 Fourier 	Normalized	 Phase  	Normalized
 Number 	  [Hz]   	Component	 Component	[degree]	Phase [deg]
    1   	7.000e+02	2.532e+01	1.000e+00	 -179.38°	    0.00°
    2   	1.400e+03	2.665e-03	1.052e-04	  176.82°	  356.20°
    3   	2.100e+03	1.785e-03	7.049e-05	  179.54°	  358.92°
    4   	2.800e+03	1.307e-03	5.163e-05	 -179.57°	   -0.19°
    5   	3.500e+03	1.044e-03	4.124e-05	  178.29°	  357.66°
    6   	4.200e+03	8.885e-04	3.509e-05	 -179.88°	   -0.51°
    7   	4.900e+03	7.429e-04	2.934e-05	  179.45°	  358.82°
    8   	5.600e+03	6.737e-04	2.661e-05	 -179.62°	   -0.25°
    9   	6.300e+03	5.705e-04	2.253e-05	  178.36°	  357.74°
   10   	7.000e+03	5.430e-04	2.145e-05	 -179.56°	   -0.19°
   11   	7.700e+03	4.653e-04	1.838e-05	  176.47°	  355.85°
   12   	8.400e+03	4.462e-04	1.762e-05	 -179.77°	   -0.40°
   13   	9.100e+03	3.966e-04	1.566e-05	  176.25°	  355.62°
   14   	9.800e+03	3.726e-04	1.471e-05	  179.84°	  359.22°
   15   	1.050e+04	3.449e-04	1.362e-05	  179.23°	  358.61°
   16   	1.120e+04	3.210e-04	1.268e-05	  179.65°	  359.03°
   17   	1.190e+04	3.024e-04	1.194e-05	 -176.47°	    2.90°
   18   	1.260e+04	2.894e-04	1.143e-05	  180.00°	  359.37°
   19   	1.330e+04	2.670e-04	1.055e-05	 -174.74°	    4.63°
   20   	1.400e+04	2.695e-04	1.064e-05	 -179.29°	    0.09°
   21   	1.470e+04	2.402e-04	9.486e-06	 -177.67°	    1.71°
   22   	1.540e+04	2.498e-04	9.867e-06	 -178.84°	    0.53°
   23   	1.610e+04	2.236e-04	8.829e-06	  177.51°	  356.88°
   24   	1.680e+04	2.245e-04	8.865e-06	 -179.22°	    0.16°
   25   	1.750e+04	2.102e-04	8.303e-06	  175.95°	  355.33°
   26   	1.820e+04	1.967e-04	7.768e-06	  179.59°	  358.96°
   27   	1.890e+04	1.929e-04	7.617e-06	  179.63°	  359.00°
   28   	1.960e+04	1.753e-04	6.924e-06	  178.49°	  357.86°
   29   	2.030e+04	1.738e-04	6.866e-06	 -174.33°	    5.05°
   30   	2.100e+04	1.656e-04	6.541e-06	  178.82°	  358.20°
Total Harmonic Distortion: 0.016372%(0.102191%)

.step n=16
N-Period=4
Fourier components of V(out)
DC component:-0.221678

Harmonic	Frequency	 Fourier 	Normalized	 Phase  	Normalized
 Number 	  [Hz]   	Component	 Component	[degree]	Phase [deg]
    1   	8.000e+02	2.531e+01	1.000e+00	    0.52°	    0.00°
    2   	1.600e+03	2.208e-03	8.722e-05	  176.05°	  175.53°
    3   	2.400e+03	1.329e-03	5.252e-05	 -178.77°	 -179.29°
    4   	3.200e+03	1.075e-03	4.248e-05	 -179.55°	 -180.07°
    5   	4.000e+03	8.258e-04	3.263e-05	 -177.22°	 -177.74°
    6   	4.800e+03	7.362e-04	2.908e-05	 -179.93°	 -180.45°
    7   	5.600e+03	5.924e-04	2.341e-05	 -178.98°	 -179.50°
    8   	6.400e+03	5.605e-04	2.215e-05	 -179.60°	 -180.12°
    9   	7.200e+03	4.688e-04	1.852e-05	 -177.55°	 -178.07°
   10   	8.000e+03	4.529e-04	1.789e-05	 -179.51°	 -180.03°
   11   	8.800e+03	3.866e-04	1.527e-05	 -175.03°	 -175.55°
   12   	9.600e+03	3.701e-04	1.462e-05	 -179.75°	 -180.27°
   13   	1.040e+04	3.241e-04	1.280e-05	 -174.66°	 -175.18°
   14   	1.120e+04	3.059e-04	1.209e-05	  179.74°	  179.22°
   15   	1.200e+04	2.777e-04	1.097e-05	 -178.83°	 -179.35°
   16   	1.280e+04	2.621e-04	1.036e-05	  179.45°	  178.93°
   17   	1.360e+04	2.488e-04	9.829e-06	  175.18°	  174.66°
   18   	1.440e+04	2.380e-04	9.404e-06	  179.87°	  179.35°
   19   	1.520e+04	2.282e-04	9.015e-06	  173.04°	  172.52°
   20   	1.600e+04	2.246e-04	8.873e-06	 -179.20°	 -179.72°
   21   	1.680e+04	2.058e-04	8.131e-06	  176.97°	  176.45°
   22   	1.760e+04	2.095e-04	8.279e-06	 -178.60°	 -179.12°
   23   	1.840e+04	1.832e-04	7.240e-06	 -176.42°	 -176.94°
   24   	1.920e+04	1.865e-04	7.369e-06	 -179.03°	 -179.55°
   25   	2.000e+04	1.644e-04	6.494e-06	 -173.98°	 -174.50°
   26   	2.080e+04	1.600e-04	6.321e-06	  179.42°	  178.90°
   27   	2.160e+04	1.527e-04	6.031e-06	 -179.45°	 -179.97°
   28   	2.240e+04	1.404e-04	5.547e-06	  177.93°	  177.41°
   29   	2.320e+04	1.506e-04	5.950e-06	  172.40°	  171.88°
   30   	2.400e+04	1.337e-04	5.283e-06	  178.37°	  177.85°
Total Harmonic Distortion: 0.013254%(0.083518%)

.step n=17
N-Period=4
Fourier components of V(out)
DC component:-0.207716

Harmonic	Frequency	 Fourier 	Normalized	 Phase  	Normalized
 Number 	  [Hz]   	Component	 Component	[degree]	Phase [deg]
    1   	9.000e+02	2.532e+01	1.000e+00	 -179.56°	    0.00°
    2   	1.800e+03	1.866e-03	7.371e-05	  175.22°	  354.79°
    3   	2.700e+03	1.236e-03	4.880e-05	  178.82°	  358.39°
    4   	3.600e+03	9.009e-04	3.558e-05	 -179.53°	    0.03°
    5   	4.500e+03	7.147e-04	2.823e-05	  176.59°	  356.15°
    6   	5.400e+03	6.223e-04	2.458e-05	 -180.00°	   -0.43°
    7   	6.300e+03	5.061e-04	1.999e-05	  178.79°	  358.35°
    8   	7.200e+03	4.762e-04	1.881e-05	 -179.59°	   -0.03°
    9   	8.100e+03	3.863e-04	1.526e-05	  176.77°	  356.34°
   10   	9.000e+03	3.860e-04	1.525e-05	 -179.45°	    0.12°
   11   	9.900e+03	3.162e-04	1.249e-05	  173.26°	  352.83°
   12   	1.080e+04	3.134e-04	1.238e-05	 -179.73°	   -0.16°
   13   	1.170e+04	2.714e-04	1.072e-05	  172.87°	  352.44°
   14   	1.260e+04	2.559e-04	1.011e-05	  179.62°	  359.18°
   15   	1.350e+04	2.356e-04	9.304e-06	  178.44°	  358.01°
   16   	1.440e+04	2.178e-04	8.601e-06	  179.18°	  358.74°
   17   	1.530e+04	2.058e-04	8.126e-06	 -173.44°	    6.12°
   18   	1.620e+04	1.994e-04	7.875e-06	  179.67°	  359.23°
   19   	1.710e+04	1.804e-04	7.123e-06	 -170.00°	    9.56°
   20   	1.800e+04	1.912e-04	7.553e-06	 -179.15°	    0.41°
   21   	1.890e+04	1.605e-04	6.340e-06	 -175.51°	    4.06°
   22   	1.980e+04	1.799e-04	7.103e-06	 -178.34°	    1.22°
   23   	2.070e+04	1.520e-04	6.001e-06	  175.20°	  354.77°
   24   	2.160e+04	1.585e-04	6.259e-06	 -178.81°	    0.76°
   25   	2.250e+04	1.461e-04	5.770e-06	  172.30°	  351.86°
   26   	2.340e+04	1.325e-04	5.232e-06	  179.25°	  358.82°
   27   	2.430e+04	1.329e-04	5.249e-06	  179.18°	  358.74°
   28   	2.520e+04	1.139e-04	4.498e-06	  177.23°	  356.79°
   29   	2.610e+04	1.182e-04	4.667e-06	 -169.02°	   10.54°
   30   	2.700e+04	1.095e-04	4.324e-06	  177.76°	  357.33°
Total Harmonic Distortion: 0.011375%(0.069459%)

.step n=18
N-Period=4
Fourier components of V(out)
DC component:-0.195

Harmonic	Frequency	 Fourier 	Normalized	 Phase  	Normalized
 Number 	  [Hz]   	Component	 Component	[degree]	Phase [deg]
    1   	1.000e+03	2.531e+01	1.000e+00	    0.37°	    0.00°
    2   	2.000e+03	1.607e-03	6.347e-05	  174.36°	  174.00°
    3   	3.000e+03	9.106e-04	3.597e-05	 -177.78°	 -178.14°
    4   	4.000e+03	7.673e-04	3.031e-05	 -179.52°	 -179.88°
    5   	5.000e+03	5.762e-04	2.276e-05	 -175.05°	 -175.42°
    6   	6.000e+03	5.357e-04	2.116e-05	  179.92°	  179.56°
    7   	7.000e+03	4.144e-04	1.637e-05	 -178.17°	 -178.53°
    8   	8.000e+03	4.123e-04	1.629e-05	 -179.59°	 -179.96°
    9   	9.000e+03	3.312e-04	1.308e-05	 -175.69°	 -176.05°
   10   	1.000e+04	3.353e-04	1.325e-05	 -179.40°	 -179.77°
   11   	1.100e+04	2.746e-04	1.085e-05	 -171.28°	 -171.64°
   12   	1.200e+04	2.701e-04	1.067e-05	 -179.72°	 -180.08°
   13   	1.300e+04	2.286e-04	9.031e-06	 -170.50°	 -170.87°
   14   	1.400e+04	2.174e-04	8.587e-06	  179.45°	  179.08°
   15   	1.500e+04	1.934e-04	7.641e-06	 -177.81°	 -178.18°
   16   	1.600e+04	1.836e-04	7.251e-06	  178.83°	  178.47°
   17   	1.700e+04	1.764e-04	6.967e-06	  171.56°	  171.19°
   18   	1.800e+04	1.698e-04	6.710e-06	  179.42°	  179.05°
   19   	1.900e+04	1.656e-04	6.543e-06	  167.92°	  167.55°
   20   	2.000e+04	1.660e-04	6.559e-06	 -179.12°	 -179.48°
   21   	2.100e+04	1.479e-04	5.843e-06	  174.62°	  174.25°
   22   	2.200e+04	1.575e-04	6.222e-06	 -178.10°	 -178.47°
   23   	2.300e+04	1.293e-04	5.109e-06	 -173.65°	 -174.01°
   24   	2.400e+04	1.370e-04	5.413e-06	 -178.60°	 -178.97°
   25   	2.500e+04	1.142e-04	4.513e-06	 -168.89°	 -169.25°
   26   	2.600e+04	1.110e-04	4.385e-06	  179.00°	  178.64°
   27   	2.700e+04	1.050e-04	4.147e-06	 -178.77°	 -179.13°
   28   	2.800e+04	9.309e-05	3.678e-06	  176.34°	  175.98°
   29   	2.900e+04	1.090e-04	4.306e-06	  166.64°	  166.27°
   30   	3.000e+04	9.070e-05	3.583e-06	  177.06°	  176.69°
Total Harmonic Distortion: 0.009484%(0.058591%)



Measurement: vrms
  step	RMS(v(out))	FROM	TO
     1	16.7019	0.005	0.5
     2	17.3699	0.005	0.333333
     3	17.6056	0.005	0.25
     4	17.6852	0.005	0.2
     5	17.7026	0.005	0.166667
     6	17.7056	0.005	0.142857
     7	17.7214	0.005	0.125
     8	17.7597	0.005	0.111111
     9	17.8151	0.005	0.1
    10	17.8721	0.005	0.05
    11	17.8767	0.005	0.0333333
    12	17.8926	0.005	0.025
    13	17.8825	0.005	0.02
    14	17.8974	0.005	0.0166667
    15	17.8842	0.005	0.0142857
    16	17.8992	0.005	0.0125
    17	17.8844	0.005	0.0111111
    18	17.9	0.005	0.01

Measurement: pout
  step	AVG(v(out)*i(rl))	FROM	TO
     1	34.8694	0.005	0.5
     2	37.7143	0.005	0.333333
     3	38.7445	0.005	0.25
     4	39.096	0.005	0.2
     5	39.1726	0.005	0.166667
     6	39.1862	0.005	0.142857
     7	39.2561	0.005	0.125
     8	39.4257	0.005	0.111111
     9	39.6721	0.005	0.1
    10	39.9263	0.005	0.05
    11	39.9469	0.005	0.0333333
    12	40.0182	0.005	0.025
    13	39.9731	0.005	0.02
    14	40.0395	0.005	0.0166667
    15	39.9805	0.005	0.0142857
    16	40.0475	0.005	0.0125
    17	39.9813	0.005	0.0111111
    18	40.0512	0.005	0.01

Measurement: vout_max
  step	MAX(v(out))	FROM	TO
     1	23.8422	0	0.5
     2	24.6522	0	0.333333
     3	24.9519	0	0.25
     4	25.0906	0	0.2
     5	25.1651	0	0.166667
     6	25.2098	0	0.142857
     7	25.2374	0	0.125
     8	25.2517	0	0.111111
     9	25.2573	0	0.1
    10	25.157	0	0.05
    11	25.1131	0	0.0333333
    12	25.0778	0	0.025
    13	25.0897	0	0.02
    14	25.087	0	0.0166667
    15	25.1055	0	0.0142857
    16	25.1099	0	0.0125
    17	25.1264	0	0.0111111
    18	25.1321	0	0.01


Date: Sun Dec 08 18:44:55 2019
Total elapsed time: 11673.701 seconds.

tnom = 27
temp = 27
method = modified trap
totiter = 402773
traniter = 400665
tranpoints = 200256
accept = 200151
rejected = 105
matrix size = 103
fillins = 180
Matrix Compiler1: 23.94 KB object code size  16.4/12.5/[8.3]
Matrix Compiler2:     931 opcodes  7.9/[7.3]/10.2

