Circuit: * C:\Users\bakaneko\Facultad\Materias\Circuitos Electrónicos II\TPS\REPO-TPS\REPO-DSE\LTSPICE\amplifier\amplifier_THD_vs_freq.asc

Direct Newton iteration failed to find .op point.  (Use ".option noopiter" to skip.)
Starting Gmin stepping
Gmin = 10
Gmin = 1.07374
Gmin = 0.115292
Gmin = 0.0123794
Gmin = 0.00132923
Gmin = 0.000142725
Gmin = 1.5325e-005
Gmin = 1.6455e-006
vernier = 0.5
vernier = 0.25
vernier = 0.125
vernier = 0.0625
vernier = 0.03125
vernier = 0.015625
vernier = 0.0078125
Gmin = 2.04488e-006
vernier = 0.0104167
vernier = 0.0138889
Gmin = 1.99152e-006
vernier = 0.0185185
Gmin = 1.91041e-006
vernier = 0.0246913
vernier = 0.0329218
Gmin = 1.78177e-006
vernier = 0.0438957
vernier = 0.0219478
vernier = 0.0109739
vernier = 0.00548696
vernier = 0.00274348
Gmin = 1.69634e-006
vernier = 0.00137174
vernier = 0.00068587
vernier = 0.000514403
Gmin = 0
Gmin stepping failed

Starting source stepping with srcstepmethod=0
Source Step = 3.0303%
Source Step = 33.3333%
Source Step = 63.6364%
Source Step = 93.9394%
Source stepping succeeded in finding the operating point.

.step freq=1000
N-Period=4
Fourier components of V(out)
DC component:-0.195063

Harmonic	Frequency	 Fourier 	Normalized	 Phase  	Normalized
 Number 	  [Hz]   	Component	 Component	[degree]	Phase [deg]
    1   	1.000e+03	2.531e+01	1.000e+00	    0.30°	    0.00°
    2   	2.000e+03	1.673e-03	6.611e-05	  172.44°	  172.14°
    3   	3.000e+03	8.866e-04	3.503e-05	 -176.74°	 -177.04°
    4   	4.000e+03	7.822e-04	3.090e-05	 -179.36°	 -179.65°
    5   	5.000e+03	5.759e-04	2.275e-05	 -172.68°	 -172.98°
    6   	6.000e+03	5.571e-04	2.201e-05	  179.77°	  179.47°
    7   	7.000e+03	4.139e-04	1.635e-05	 -177.28°	 -177.57°
    8   	8.000e+03	4.334e-04	1.712e-05	 -179.64°	 -179.94°
    9   	9.000e+03	3.343e-04	1.321e-05	 -173.72°	 -174.02°
   10   	1.000e+04	3.549e-04	1.402e-05	 -179.43°	 -179.72°
   11   	1.100e+04	2.802e-04	1.107e-05	 -167.40°	 -167.69°
   12   	1.200e+04	2.819e-04	1.114e-05	 -179.80°	 -180.10°
   13   	1.300e+04	2.324e-04	9.181e-06	 -166.17°	 -166.47°
   14   	1.400e+04	2.206e-04	8.714e-06	  179.15°	  178.85°
   15   	1.500e+04	1.926e-04	7.608e-06	 -176.73°	 -177.03°
   16   	1.600e+04	1.831e-04	7.235e-06	  178.30°	  178.00°
   17   	1.700e+04	1.784e-04	7.049e-06	  167.63°	  167.34°
   18   	1.800e+04	1.727e-04	6.824e-06	  178.98°	  178.69°
   19   	1.900e+04	1.716e-04	6.778e-06	  162.53°	  162.24°
   20   	2.000e+04	1.751e-04	6.919e-06	 -179.26°	 -179.56°
   21   	2.100e+04	1.510e-04	5.966e-06	  172.03°	  171.73°
   22   	2.200e+04	1.691e-04	6.679e-06	 -178.04°	 -178.34°
   23   	2.300e+04	1.310e-04	5.177e-06	 -170.81°	 -171.10°
   24   	2.400e+04	1.440e-04	5.689e-06	 -178.49°	 -178.79°
   25   	2.500e+04	1.156e-04	4.566e-06	 -163.52°	 -163.82°
   26   	2.600e+04	1.097e-04	4.334e-06	  178.69°	  178.39°
   27   	2.700e+04	1.033e-04	4.079e-06	 -177.97°	 -178.27°
   28   	2.800e+04	8.687e-05	3.432e-06	  175.05°	  174.76°
   29   	2.900e+04	1.124e-04	4.441e-06	  160.55°	  160.26°
   30   	3.000e+04	8.679e-05	3.429e-06	  175.94°	  175.65°
Total Harmonic Distortion: 0.009712%(0.058638%)


.step freq=2000
N-Period=4
Fourier components of V(out)
DC component:-0.0932391

Harmonic	Frequency	 Fourier 	Normalized	 Phase  	Normalized
 Number 	  [Hz]   	Component	 Component	[degree]	Phase [deg]
    1   	2.000e+03	2.531e+01	1.000e+00	   -0.17°	    0.00°
    2   	4.000e+03	7.589e-04	2.998e-05	  161.30°	  161.46°
    3   	6.000e+03	1.837e-04	7.256e-06	 -137.24°	 -137.07°
    4   	8.000e+03	2.627e-04	1.038e-05	  179.09°	  179.25°
    5   	1.000e+04	1.987e-04	7.850e-06	 -130.91°	 -130.75°
    6   	1.200e+04	2.463e-04	9.731e-06	  175.74°	  175.90°
    7   	1.400e+04	1.165e-04	4.602e-06	 -159.90°	 -159.74°
    8   	1.600e+04	2.153e-04	8.506e-06	  177.54°	  177.71°
    9   	1.800e+04	1.246e-04	4.922e-06	 -145.22°	 -145.05°
   10   	2.000e+04	1.886e-04	7.449e-06	  178.52°	  178.68°
   11   	2.200e+04	1.459e-04	5.765e-06	 -123.70°	 -123.53°
   12   	2.400e+04	1.287e-04	5.083e-06	  177.26°	  177.43°
   13   	2.600e+04	1.275e-04	5.036e-06	 -115.06°	 -114.89°
   14   	2.800e+04	6.806e-05	2.689e-06	  169.49°	  169.66°
   15   	3.000e+04	4.914e-05	1.941e-06	 -143.42°	 -143.26°
   16   	3.200e+04	4.245e-05	1.677e-06	  156.70°	  156.86°
   17   	3.400e+04	8.564e-05	3.383e-06	  120.83°	  121.00°
   18   	3.600e+04	5.879e-05	2.322e-06	  165.92°	  166.08°
   19   	3.800e+04	1.213e-04	4.793e-06	  116.71°	  116.88°
   20   	4.000e+04	9.381e-05	3.706e-06	  175.82°	  175.98°
   21   	4.200e+04	7.351e-05	2.904e-06	  136.97°	  137.14°
   22   	4.400e+04	1.052e-04	4.157e-06	  179.26°	  179.43°
   23   	4.600e+04	5.548e-05	2.191e-06	 -132.71°	 -132.55°
   24   	4.800e+04	7.199e-05	2.844e-06	  178.10°	  178.26°
   25   	5.000e+04	7.728e-05	3.053e-06	 -104.59°	 -104.42°
   26   	5.200e+04	1.821e-05	7.195e-07	  155.78°	  155.94°
   27   	5.400e+04	2.323e-05	9.175e-07	 -128.68°	 -128.51°
   28   	5.600e+04	1.843e-05	7.280e-07	   33.49°	   33.66°
   29   	5.800e+04	7.847e-05	3.100e-06	  107.69°	  107.85°
   30   	6.000e+04	7.354e-06	2.905e-07	  101.46°	  101.62°
Total Harmonic Distortion: 0.004000%(0.014754%)

.step freq=3000
N-Period=4
Fourier components of V(out)
DC component:-0.0613892

Harmonic	Frequency	 Fourier 	Normalized	 Phase  	Normalized
 Number 	  [Hz]   	Component	 Component	[degree]	Phase [deg]
    1   	3.000e+03	2.531e+01	1.000e+00	   -0.46°	    0.00°
    2   	6.000e+03	7.531e-04	2.975e-05	  158.84°	  159.30°
    3   	9.000e+03	2.482e-04	9.805e-06	  -90.69°	  -90.23°
    4   	1.200e+04	2.042e-04	8.065e-06	  173.57°	  174.03°
    5   	1.500e+04	2.362e-04	9.330e-06	 -105.63°	 -105.17°
    6   	1.800e+04	2.418e-04	9.554e-06	  169.99°	  170.45°
    7   	2.100e+04	9.593e-05	3.790e-06	 -145.40°	 -144.94°
    8   	2.400e+04	2.275e-04	8.985e-06	  173.01°	  173.47°
    9   	2.700e+04	1.302e-04	5.143e-06	 -132.59°	 -132.13°
   10   	3.000e+04	2.098e-04	8.286e-06	  174.44°	  174.90°
   11   	3.300e+04	1.877e-04	7.414e-06	 -109.77°	 -109.31°
   12   	3.600e+04	1.337e-04	5.282e-06	  171.01°	  171.47°
   13   	3.900e+04	1.822e-04	7.198e-06	  -99.06°	  -98.60°
   14   	4.200e+04	5.166e-05	2.041e-06	  147.17°	  147.63°
   15   	4.500e+04	5.709e-05	2.255e-06	 -103.37°	 -102.91°
   16   	4.800e+04	3.107e-05	1.227e-06	   93.39°	   93.85°
   17   	5.100e+04	1.121e-04	4.427e-06	  102.36°	  102.82°
   18   	5.400e+04	4.297e-05	1.698e-06	  142.46°	  142.92°
   19   	5.700e+04	1.834e-04	7.244e-06	  102.84°	  103.30°
   20   	6.000e+04	1.023e-04	4.042e-06	  168.90°	  169.36°
   21   	6.300e+04	1.048e-04	4.141e-06	  113.68°	  114.14°
   22   	6.600e+04	1.296e-04	5.120e-06	  171.77°	  172.23°
   23   	6.900e+04	6.156e-05	2.432e-06	 -116.42°	 -115.96°
   24   	7.200e+04	8.231e-05	3.252e-06	  165.78°	  166.24°
   25   	7.500e+04	1.263e-04	4.987e-06	  -95.30°	  -94.84°
   26   	7.800e+04	1.850e-05	7.310e-07	   60.82°	   61.28°
   27   	8.100e+04	4.451e-05	1.758e-06	  -96.45°	  -95.99°
   28   	8.400e+04	6.031e-05	2.382e-06	    4.81°	    5.27°
   29   	8.700e+04	1.115e-04	4.406e-06	   91.91°	   92.37°
   30   	9.000e+04	2.892e-05	1.143e-06	   -4.37°	   -3.91°
Total Harmonic Distortion: 0.004203%(0.010615%)

.step freq=4000
N-Period=4
Fourier components of V(out)
DC component:-0.0458366

Harmonic	Frequency	 Fourier 	Normalized	 Phase  	Normalized
 Number 	  [Hz]   	Component	 Component	[degree]	Phase [deg]
    1   	4.000e+03	2.531e+01	1.000e+00	   -0.71°	    0.00°
    2   	8.000e+03	8.720e-04	3.445e-05	  159.16°	  159.87°
    3   	1.200e+04	4.451e-04	1.758e-05	  -85.35°	  -84.63°
    4   	1.600e+04	2.122e-04	8.381e-06	  166.58°	  167.29°
    5   	2.000e+04	3.100e-04	1.225e-05	  -99.97°	  -99.26°
    6   	2.400e+04	2.791e-04	1.103e-05	  164.39°	  165.10°
    7   	2.800e+04	1.129e-04	4.461e-06	 -146.86°	 -146.14°
    8   	3.200e+04	2.702e-04	1.068e-05	  168.64°	  169.36°
    9   	3.600e+04	1.558e-04	6.154e-06	 -135.81°	 -135.09°
   10   	4.000e+04	2.588e-04	1.022e-05	  170.47°	  171.18°
   11   	4.400e+04	2.374e-04	9.379e-06	 -108.55°	 -107.84°
   12   	4.800e+04	1.648e-04	6.509e-06	  164.73°	  165.44°
   13   	5.200e+04	2.496e-04	9.861e-06	  -96.60°	  -95.89°
   14   	5.600e+04	6.090e-05	2.406e-06	  125.83°	  126.54°
   15   	6.000e+04	8.877e-05	3.507e-06	  -96.38°	  -95.67°
   16   	6.400e+04	5.341e-05	2.110e-06	   58.89°	   59.60°
   17   	6.800e+04	1.496e-04	5.912e-06	   97.74°	   98.46°
   18   	7.200e+04	3.964e-05	1.566e-06	  114.92°	  115.63°
   19   	7.600e+04	2.653e-04	1.048e-05	   96.99°	   97.70°
   20   	8.000e+04	1.214e-04	4.797e-06	  162.90°	  163.61°
   21   	8.400e+04	1.593e-04	6.294e-06	  101.46°	  102.18°
   22   	8.800e+04	1.688e-04	6.667e-06	  163.66°	  164.37°
   23   	9.200e+04	7.142e-05	2.821e-06	 -113.16°	 -112.45°
   24   	9.600e+04	1.076e-04	4.249e-06	  152.18°	  152.89°
   25   	1.000e+05	1.837e-04	7.256e-06	  -99.08°	  -98.37°
   26   	1.040e+05	3.953e-05	1.561e-06	   39.45°	   40.16°
   27   	1.080e+05	7.618e-05	3.010e-06	 -105.34°	 -104.63°
   28   	1.120e+05	9.960e-05	3.935e-06	   -7.45°	   -6.74°
   29   	1.160e+05	1.515e-04	5.986e-06	   85.32°	   86.03°
   30   	1.200e+05	5.428e-05	2.144e-06	  -26.11°	  -25.40°
Total Harmonic Distortion: 0.005258%(0.014524%)

.step freq=5000
N-Period=4
Fourier components of V(out)
DC component:-0.0366201

Harmonic	Frequency	 Fourier 	Normalized	 Phase  	Normalized
 Number 	  [Hz]   	Component	 Component	[degree]	Phase [deg]
    1   	5.000e+03	2.531e+01	1.000e+00	   -0.95°	    0.00°
    2   	1.000e+04	1.028e-03	4.060e-05	  159.56°	  160.51°
    3   	1.500e+04	7.368e-04	2.911e-05	  -87.07°	  -86.12°
    4   	2.000e+04	2.411e-04	9.524e-06	  159.71°	  160.66°
    5   	2.500e+04	3.890e-04	1.537e-05	  -99.33°	  -98.38°
    6   	3.000e+04	3.274e-04	1.293e-05	  159.00°	  159.95°
    7   	3.500e+04	1.421e-04	5.613e-06	 -154.97°	 -154.02°
    8   	4.000e+04	3.207e-04	1.267e-05	  164.51°	  165.46°
    9   	4.500e+04	1.847e-04	7.299e-06	 -144.45°	 -143.50°
   10   	5.000e+04	3.173e-04	1.253e-05	  166.68°	  167.63°
   11   	5.500e+04	2.838e-04	1.121e-05	 -110.38°	 -109.43°
   12   	6.000e+04	2.059e-04	8.133e-06	  158.76°	  159.71°
   13   	6.500e+04	3.215e-04	1.270e-05	  -97.35°	  -96.40°
   14   	7.000e+04	8.064e-05	3.186e-06	  110.41°	  111.36°
   15   	7.500e+04	1.263e-04	4.991e-06	  -98.62°	  -97.67°
   16   	8.000e+04	8.393e-05	3.316e-06	   43.39°	   44.34°
   17   	8.500e+04	1.934e-04	7.639e-06	   95.77°	   96.72°
   18   	9.000e+04	4.084e-05	1.613e-06	   85.77°	   86.72°
   19   	9.500e+04	3.606e-04	1.425e-05	   92.05°	   93.00°
   20   	1.000e+05	1.430e-04	5.649e-06	  157.48°	  158.43°
   21   	1.050e+05	2.257e-04	8.918e-06	   92.04°	   92.98°
   22   	1.100e+05	2.129e-04	8.411e-06	  155.32°	  156.27°
   23   	1.150e+05	8.060e-05	3.184e-06	 -113.02°	 -112.08°
   24   	1.200e+05	1.375e-04	5.432e-06	  139.03°	  139.98°
   25   	1.250e+05	2.449e-04	9.676e-06	 -105.79°	 -104.84°
   26   	1.300e+05	6.342e-05	2.505e-06	   28.02°	   28.97°
   27   	1.350e+05	1.104e-04	4.361e-06	 -118.25°	 -117.30°
   28   	1.400e+05	1.388e-04	5.483e-06	  -19.16°	  -18.21°
   29   	1.450e+05	1.966e-04	7.767e-06	   79.53°	   80.48°
   30   	1.500e+05	7.886e-05	3.115e-06	  -43.77°	  -42.83°
Total Harmonic Distortion: 0.006706%(0.020268%)

.step freq=6000
N-Period=4
Fourier components of V(out)
DC component:-0.03052

Harmonic	Frequency	 Fourier 	Normalized	 Phase  	Normalized
 Number 	  [Hz]   	Component	 Component	[degree]	Phase [deg]
    1   	6.000e+03	2.531e+01	1.000e+00	   -1.18°	    0.00°
    2   	1.200e+04	1.197e-03	4.729e-05	  159.48°	  160.65°
    3   	1.800e+04	1.150e-03	4.544e-05	  -89.79°	  -88.61°
    4   	2.400e+04	2.775e-04	1.097e-05	  153.42°	  154.60°
    5   	3.000e+04	4.676e-04	1.847e-05	 -100.34°	  -99.16°
    6   	3.600e+04	3.790e-04	1.498e-05	  154.16°	  155.34°
    7   	4.200e+04	1.772e-04	7.001e-06	 -165.06°	 -163.88°
    8   	4.800e+04	3.758e-04	1.485e-05	  160.73°	  161.91°
    9   	5.400e+04	2.142e-04	8.461e-06	 -154.48°	 -153.30°
   10   	6.000e+04	3.829e-04	1.513e-05	  162.65°	  163.83°
   11   	6.600e+04	3.286e-04	1.298e-05	 -112.92°	 -111.74°
   12   	7.200e+04	2.526e-04	9.981e-06	  152.24°	  153.41°
   13   	7.800e+04	3.985e-04	1.574e-05	  -99.64°	  -98.46°
   14   	8.400e+04	1.058e-04	4.182e-06	   97.09°	   98.27°
   15   	9.000e+04	1.656e-04	6.541e-06	 -104.36°	 -103.18°
   16   	9.600e+04	1.180e-04	4.662e-06	   31.20°	   32.38°
   17   	1.020e+05	2.470e-04	9.759e-06	   93.55°	   94.73°
   18   	1.080e+05	4.315e-05	1.705e-06	   58.32°	   59.50°
   19   	1.140e+05	4.676e-04	1.847e-05	   86.48°	   87.66°
   20   	1.200e+05	1.680e-04	6.636e-06	  152.37°	  153.55°
   21   	1.260e+05	2.974e-04	1.175e-05	   83.04°	   84.22°
   22   	1.320e+05	2.600e-04	1.027e-05	  146.33°	  147.51°
   23   	1.380e+05	9.274e-05	3.664e-06	 -114.18°	 -113.00°
   24   	1.440e+05	1.678e-04	6.631e-06	  125.46°	  126.64°
   25   	1.500e+05	3.083e-04	1.218e-05	 -114.03°	 -112.85°
   26   	1.560e+05	9.078e-05	3.587e-06	   15.74°	   16.92°
   27   	1.620e+05	1.432e-04	5.658e-06	 -132.08°	 -130.90°
   28   	1.680e+05	1.782e-04	7.040e-06	  -31.61°	  -30.43°
   29   	1.740e+05	2.482e-04	9.807e-06	   72.63°	   73.81°
   30   	1.800e+05	1.016e-04	4.013e-06	  -61.07°	  -59.90°
Total Harmonic Distortion: 0.008541%(0.026565%)

.step freq=7000
N-Period=4
Fourier components of V(out)
DC component:-0.0261839

Harmonic	Frequency	 Fourier 	Normalized	 Phase  	Normalized
 Number 	  [Hz]   	Component	 Component	[degree]	Phase [deg]
    1   	7.000e+03	2.531e+01	1.000e+00	   -1.40°	    0.00°
    2   	1.400e+04	1.375e-03	5.434e-05	  159.11°	  160.51°
    3   	2.100e+04	1.715e-03	6.777e-05	  -92.30°	  -90.90°
    4   	2.800e+04	3.230e-04	1.276e-05	  147.38°	  148.78°
    5   	3.500e+04	5.482e-04	2.166e-05	 -101.86°	 -100.45°
    6   	4.200e+04	4.326e-04	1.709e-05	  148.99°	  150.39°
    7   	4.900e+04	2.204e-04	8.707e-06	 -175.12°	 -173.72°
    8   	5.600e+04	4.295e-04	1.697e-05	  156.82°	  158.22°
    9   	6.300e+04	2.462e-04	9.729e-06	 -165.47°	 -164.07°
   10   	7.000e+04	4.500e-04	1.778e-05	  158.79°	  160.20°
   11   	7.700e+04	3.691e-04	1.458e-05	 -115.84°	 -114.43°
   12   	8.400e+04	3.034e-04	1.199e-05	  146.30°	  147.71°
   13   	9.100e+04	4.779e-04	1.888e-05	 -102.51°	 -101.11°
   14   	9.800e+04	1.359e-04	5.368e-06	   87.08°	   88.48°
   15   	1.050e+05	2.055e-04	8.118e-06	 -110.66°	 -109.26°
   16   	1.120e+05	1.556e-04	6.149e-06	   22.00°	   23.41°
   17   	1.190e+05	3.083e-04	1.218e-05	   90.51°	   91.91°
   18   	1.260e+05	5.148e-05	2.034e-06	   32.64°	   34.04°
   19   	1.330e+05	5.829e-04	2.303e-05	   80.60°	   82.00°
   20   	1.400e+05	1.910e-04	7.545e-06	  146.91°	  148.31°
   21   	1.470e+05	3.730e-04	1.474e-05	   74.58°	   75.98°
   22   	1.540e+05	3.044e-04	1.203e-05	  137.75°	  139.15°
   23   	1.610e+05	1.056e-04	4.174e-06	 -116.87°	 -115.47°
   24   	1.680e+05	1.962e-04	7.752e-06	  113.45°	  114.86°
   25   	1.750e+05	3.704e-04	1.464e-05	 -122.55°	 -121.15°
   26   	1.820e+05	1.171e-04	4.626e-06	    4.48°	    5.88°
   27   	1.890e+05	1.736e-04	6.858e-06	 -144.81°	 -143.41°
   28   	1.960e+05	2.148e-04	8.486e-06	  -42.90°	  -41.49°
   29   	2.030e+05	3.017e-04	1.192e-05	   64.67°	   66.07°
   30   	2.100e+05	1.224e-04	4.838e-06	  -74.93°	  -73.52°
Total Harmonic Distortion: 0.010858%(0.033039%)

.step freq=8000
N-Period=4
Fourier components of V(out)
DC component:-0.0229393

Harmonic	Frequency	 Fourier 	Normalized	 Phase  	Normalized
 Number 	  [Hz]   	Component	 Component	[degree]	Phase [deg]
    1   	8.000e+03	2.531e+01	1.000e+00	   -1.63°	    0.00°
    2   	1.600e+04	1.556e-03	6.147e-05	  158.33°	  159.96°
    3   	2.400e+04	2.463e-03	9.734e-05	  -94.54°	  -92.91°
    4   	3.200e+04	3.708e-04	1.465e-05	  141.69°	  143.32°
    5   	4.000e+04	6.316e-04	2.496e-05	 -103.60°	 -101.98°
    6   	4.800e+04	4.860e-04	1.921e-05	  144.20°	  145.83°
    7   	5.600e+04	2.714e-04	1.072e-05	  175.32°	  176.94°
    8   	6.400e+04	4.862e-04	1.921e-05	  153.10°	  154.73°
    9   	7.200e+04	2.821e-04	1.115e-05	 -176.76°	 -175.13°
   10   	8.000e+04	5.224e-04	2.064e-05	  154.59°	  156.21°
   11   	8.800e+04	4.057e-04	1.603e-05	 -118.89°	 -117.27°
   12   	9.600e+04	3.569e-04	1.410e-05	  139.76°	  141.39°
   13   	1.040e+05	5.586e-04	2.207e-05	 -105.76°	 -104.13°
   14   	1.120e+05	1.688e-04	6.671e-06	   76.82°	   78.45°
   15   	1.200e+05	2.440e-04	9.640e-06	 -117.12°	 -115.49°
   16   	1.280e+05	1.952e-04	7.712e-06	   12.53°	   14.16°
   17   	1.360e+05	3.770e-04	1.490e-05	   86.51°	   88.13°
   18   	1.440e+05	5.999e-05	2.370e-06	   10.68°	   12.31°
   19   	1.520e+05	7.041e-04	2.782e-05	   74.43°	   76.05°
   20   	1.600e+05	2.171e-04	8.577e-06	  141.19°	  142.81°
   21   	1.680e+05	4.502e-04	1.779e-05	   66.51°	   68.13°
   22   	1.760e+05	3.480e-04	1.375e-05	  128.76°	  130.39°
   23   	1.840e+05	1.189e-04	4.698e-06	 -121.06°	 -119.44°
   24   	1.920e+05	2.205e-04	8.712e-06	  101.15°	  102.78°
   25   	2.000e+05	4.293e-04	1.696e-05	 -131.06°	 -129.43°
   26   	2.080e+05	1.449e-04	5.726e-06	   -8.19°	   -6.57°
   27   	2.160e+05	1.996e-04	7.887e-06	 -156.24°	 -154.62°
   28   	2.240e+05	2.500e-04	9.880e-06	  -54.56°	  -52.94°
   29   	2.320e+05	3.542e-04	1.400e-05	   55.86°	   57.49°
   30   	2.400e+05	1.398e-04	5.523e-06	  -88.52°	  -86.90°
Total Harmonic Distortion: 0.013792%(0.039725%)

.step freq=9000
N-Period=4
Fourier components of V(out)
DC component:-0.0204183

Harmonic	Frequency	 Fourier 	Normalized	 Phase  	Normalized
 Number 	  [Hz]   	Component	 Component	[degree]	Phase [deg]
    1   	9.000e+03	2.530e+01	1.000e+00	   -1.85°	    0.00°
    2   	1.800e+04	1.738e-03	6.870e-05	  157.32°	  159.16°
    3   	2.700e+04	3.429e-03	1.355e-04	  -96.56°	  -94.71°
    4   	3.600e+04	4.239e-04	1.675e-05	  136.31°	  138.15°
    5   	4.500e+04	7.201e-04	2.846e-05	 -105.49°	 -103.64°
    6   	5.400e+04	5.396e-04	2.133e-05	  139.44°	  141.29°
    7   	6.300e+04	3.306e-04	1.306e-05	  166.42°	  168.27°
    8   	7.200e+04	5.425e-04	2.144e-05	  149.33°	  151.18°
    9   	8.100e+04	3.228e-04	1.276e-05	  171.94°	  173.79°
   10   	9.000e+04	5.964e-04	2.357e-05	  150.20°	  152.05°
   11   	9.900e+04	4.376e-04	1.729e-05	 -121.97°	 -120.13°
   12   	1.080e+05	4.122e-04	1.629e-05	  133.16°	  135.01°
   13   	1.170e+05	6.393e-04	2.527e-05	 -109.21°	 -107.37°
   14   	1.260e+05	2.044e-04	8.077e-06	   67.54°	   69.39°
   15   	1.350e+05	2.799e-04	1.106e-05	 -123.46°	 -121.61°
   16   	1.440e+05	2.353e-04	9.298e-06	    3.78°	    5.63°
   17   	1.530e+05	4.513e-04	1.784e-05	   81.72°	   83.56°
   18   	1.620e+05	7.066e-05	2.793e-06	   -8.04°	   -6.19°
   19   	1.710e+05	8.288e-04	3.275e-05	   68.07°	   69.92°
   20   	1.800e+05	2.414e-04	9.541e-06	  135.04°	  136.88°
   21   	1.890e+05	5.278e-04	2.086e-05	   58.75°	   60.60°
   22   	1.980e+05	3.865e-04	1.528e-05	  119.82°	  121.67°
   23   	2.070e+05	1.311e-04	5.179e-06	 -126.32°	 -124.48°
   24   	2.160e+05	2.403e-04	9.496e-06	   89.43°	   91.28°
   25   	2.250e+05	4.833e-04	1.910e-05	 -139.33°	 -137.48°
   26   	2.340e+05	1.704e-04	6.735e-06	  -20.58°	  -18.73°
   27   	2.430e+05	2.205e-04	8.716e-06	 -166.28°	 -164.44°
   28   	2.520e+05	2.818e-04	1.114e-05	  -65.87°	  -64.03°
   29   	2.610e+05	4.023e-04	1.590e-05	   46.50°	   48.35°
   30   	2.700e+05	1.555e-04	6.147e-06	 -100.50°	  -98.65°
Total Harmonic Distortion: 0.017502%(0.046777%)

.step freq=10000
N-Period=4
Fourier components of V(out)
DC component:-0.0184001

Harmonic	Frequency	 Fourier 	Normalized	 Phase  	Normalized
 Number 	  [Hz]   	Component	 Component	[degree]	Phase [deg]
    1   	1.000e+04	2.530e+01	1.000e+00	   -2.07°	    0.00°
    2   	2.000e+04	1.920e-03	7.587e-05	  156.04°	  158.11°
    3   	3.000e+04	4.651e-03	1.838e-04	  -98.47°	  -96.40°
    4   	4.000e+04	4.793e-04	1.895e-05	  130.83°	  132.90°
    5   	5.000e+04	8.138e-04	3.217e-05	 -107.65°	 -105.57°
    6   	6.000e+04	5.930e-04	2.344e-05	  134.70°	  136.77°
    7   	7.000e+04	3.955e-04	1.563e-05	  157.67°	  159.74°
    8   	8.000e+04	6.022e-04	2.380e-05	  145.63°	  147.70°
    9   	9.000e+04	3.649e-04	1.442e-05	  160.92°	  162.99°
   10   	1.000e+05	6.759e-04	2.671e-05	  145.66°	  147.73°
   11   	1.100e+05	4.674e-04	1.847e-05	 -124.81°	 -122.74°
   12   	1.200e+05	4.693e-04	1.855e-05	  126.28°	  128.35°
   13   	1.300e+05	7.206e-04	2.848e-05	 -113.12°	 -111.05°
   14   	1.400e+05	2.431e-04	9.608e-06	   57.69°	   59.76°
   15   	1.500e+05	3.106e-04	1.228e-05	 -130.56°	 -128.49°
   16   	1.600e+05	2.786e-04	1.101e-05	   -5.18°	   -3.11°
   17   	1.700e+05	5.350e-04	2.114e-05	   76.13°	   78.20°
   18   	1.800e+05	8.094e-05	3.199e-06	  -24.85°	  -22.78°
   19   	1.900e+05	9.567e-04	3.781e-05	   61.28°	   63.35°
   20   	2.000e+05	2.693e-04	1.064e-05	  128.65°	  130.72°
   21   	2.100e+05	6.018e-04	2.379e-05	   50.86°	   52.93°
   22   	2.200e+05	4.235e-04	1.674e-05	  110.84°	  112.91°
   23   	2.300e+05	1.461e-04	5.773e-06	 -133.05°	 -130.98°
   24   	2.400e+05	2.546e-04	1.006e-05	   77.48°	   79.55°
   25   	2.500e+05	5.334e-04	2.108e-05	 -147.93°	 -145.86°
   26   	2.600e+05	1.983e-04	7.836e-06	  -33.70°	  -31.63°
   27   	2.700e+05	2.346e-04	9.272e-06	 -176.24°	 -174.17°
   28   	2.800e+05	3.123e-04	1.234e-05	  -77.08°	  -75.01°
   29   	2.900e+05	4.487e-04	1.774e-05	   36.40°	   38.47°
   30   	3.000e+05	1.668e-04	6.592e-06	 -112.24°	 -110.17°
Total Harmonic Distortion: 0.022173%(0.054219%)

.step freq=11000
N-Period=4
Fourier components of V(out)
DC component:-0.0167456

Harmonic	Frequency	 Fourier 	Normalized	 Phase  	Normalized
 Number 	  [Hz]   	Component	 Component	[degree]	Phase [deg]
    1   	1.100e+04	2.530e+01	1.000e+00	   -2.29°	    0.00°
    2   	2.200e+04	2.102e-03	8.309e-05	  154.58°	  156.87°
    3   	3.300e+04	6.171e-03	2.439e-04	 -100.22°	  -97.92°
    4   	4.400e+04	5.406e-04	2.137e-05	  125.52°	  127.82°
    5   	5.500e+04	9.230e-04	3.649e-05	 -109.75°	 -107.45°
    6   	6.600e+04	6.464e-04	2.555e-05	  129.89°	  132.19°
    7   	7.700e+04	4.706e-04	1.860e-05	  150.00°	  152.29°
    8   	8.800e+04	6.614e-04	2.614e-05	  141.81°	  144.10°
    9   	9.900e+04	4.176e-04	1.651e-05	  150.10°	  152.39°
   10   	1.100e+05	7.560e-04	2.988e-05	  140.96°	  143.26°
   11   	1.210e+05	4.884e-04	1.931e-05	 -127.86°	 -125.57°
   12   	1.320e+05	5.275e-04	2.085e-05	  119.39°	  121.68°
   13   	1.430e+05	7.964e-04	3.148e-05	 -116.80°	 -114.51°
   14   	1.540e+05	2.840e-04	1.123e-05	   48.68°	   50.98°
   15   	1.650e+05	3.366e-04	1.331e-05	 -136.45°	 -134.16°
   16   	1.760e+05	3.217e-04	1.272e-05	  -13.58°	  -11.28°
   17   	1.870e+05	6.180e-04	2.443e-05	   70.12°	   72.41°
   18   	1.980e+05	9.316e-05	3.682e-06	  -39.46°	  -37.16°
   19   	2.090e+05	1.084e-03	4.283e-05	   54.66°	   56.95°
   20   	2.200e+05	2.927e-04	1.157e-05	  121.86°	  124.16°
   21   	2.310e+05	6.773e-04	2.677e-05	   43.51°	   45.80°
   22   	2.420e+05	4.530e-04	1.791e-05	  101.95°	  104.24°
   23   	2.530e+05	1.551e-04	6.130e-06	 -139.49°	 -137.19°
   24   	2.640e+05	2.629e-04	1.039e-05	   66.13°	   68.42°
   25   	2.750e+05	5.773e-04	2.282e-05	 -155.66°	 -153.36°
   26   	2.860e+05	2.214e-04	8.750e-06	  -46.61°	  -44.32°
   27   	2.970e+05	2.467e-04	9.754e-06	  176.23°	  178.52°
   28   	3.080e+05	3.370e-04	1.332e-05	  -88.12°	  -85.82°
   29   	3.190e+05	4.850e-04	1.917e-05	   26.59°	   28.88°
   30   	3.300e+05	1.752e-04	6.927e-06	 -122.53°	 -120.23°
Total Harmonic Distortion: 0.027991%(0.062303%)

.step freq=12000
N-Period=4
Fourier components of V(out)
DC component:-0.0153627

Harmonic	Frequency	 Fourier 	Normalized	 Phase  	Normalized
 Number 	  [Hz]   	Component	 Component	[degree]	Phase [deg]
    1   	1.200e+04	2.529e+01	1.000e+00	   -2.52°	    0.00°
    2   	2.400e+04	2.285e-03	9.033e-05	  152.97°	  155.49°
    3   	3.600e+04	8.039e-03	3.178e-04	 -101.89°	  -99.37°
    4   	4.800e+04	6.090e-04	2.408e-05	  120.28°	  122.80°
    5   	6.000e+04	1.049e-03	4.146e-05	 -112.00°	 -109.48°
    6   	7.200e+04	7.010e-04	2.771e-05	  124.87°	  127.39°
    7   	8.400e+04	5.557e-04	2.197e-05	  142.60°	  145.12°
    8   	9.600e+04	7.205e-04	2.849e-05	  137.79°	  140.30°
    9   	1.080e+05	4.791e-04	1.894e-05	  139.63°	  142.14°
   10   	1.200e+05	8.371e-04	3.309e-05	  136.15°	  138.67°
   11   	1.320e+05	5.037e-04	1.991e-05	 -130.77°	 -128.25°
   12   	1.440e+05	5.852e-04	2.314e-05	  112.50°	  115.02°
   13   	1.560e+05	8.693e-04	3.437e-05	 -120.36°	 -117.84°
   14   	1.680e+05	3.268e-04	1.292e-05	   39.81°	   42.33°
   15   	1.800e+05	3.561e-04	1.408e-05	 -141.51°	 -138.99°
   16   	1.920e+05	3.660e-04	1.447e-05	  -21.79°	  -19.27°
   17   	2.040e+05	7.024e-04	2.777e-05	   63.61°	   66.13°
   18   	2.160e+05	1.063e-04	4.202e-06	  -52.69°	  -50.17°
   19   	2.280e+05	1.208e-03	4.777e-05	   48.10°	   50.62°
   20   	2.400e+05	3.154e-04	1.247e-05	  115.06°	  117.58°
   21   	2.520e+05	7.511e-04	2.969e-05	   36.73°	   39.25°
   22   	2.640e+05	4.787e-04	1.893e-05	   93.24°	   95.76°
   23   	2.760e+05	1.580e-04	6.247e-06	 -146.95°	 -144.43°
   24   	2.880e+05	2.672e-04	1.056e-05	   54.63°	   57.14°
   25   	3.000e+05	6.105e-04	2.414e-05	 -162.60°	 -160.08°
   26   	3.120e+05	2.472e-04	9.773e-06	  -59.22°	  -56.70°
   27   	3.240e+05	2.508e-04	9.916e-06	  172.21°	  174.73°
   28   	3.360e+05	3.629e-04	1.435e-05	  -98.84°	  -96.32°
   29   	3.480e+05	5.056e-04	1.999e-05	   16.18°	   18.70°
   30   	3.600e+05	1.857e-04	7.340e-06	 -132.93°	 -130.41°
Total Harmonic Distortion: 0.035175%(0.071266%)

.step freq=13000
N-Period=4
Fourier components of V(out)
DC component:-0.0141867

Harmonic	Frequency	 Fourier 	Normalized	 Phase  	Normalized
 Number 	  [Hz]   	Component	 Component	[degree]	Phase [deg]
    1   	1.300e+04	2.529e+01	1.000e+00	   -2.74°	    0.00°
    2   	2.600e+04	2.468e-03	9.758e-05	  151.22°	  153.96°
    3   	3.900e+04	1.031e-02	4.077e-04	 -103.53°	 -100.79°
    4   	5.200e+04	6.852e-04	2.709e-05	  115.04°	  117.79°
    5   	6.500e+04	1.199e-03	4.740e-05	 -114.43°	 -111.68°
    6   	7.800e+04	7.575e-04	2.995e-05	  119.60°	  122.35°
    7   	9.100e+04	6.460e-04	2.554e-05	  135.58°	  138.32°
    8   	1.040e+05	7.791e-04	3.081e-05	  133.58°	  136.33°
    9   	1.170e+05	5.480e-04	2.167e-05	  129.70°	  132.44°
   10   	1.300e+05	9.175e-04	3.628e-05	  131.27°	  134.02°
   11   	1.430e+05	5.118e-04	2.024e-05	 -133.79°	 -131.05°
   12   	1.560e+05	6.425e-04	2.540e-05	  105.75°	  108.49°
   13   	1.690e+05	9.353e-04	3.698e-05	 -123.84°	 -121.09°
   14   	1.820e+05	3.706e-04	1.465e-05	   31.44°	   34.19°
   15   	1.950e+05	3.684e-04	1.457e-05	 -145.34°	 -142.60°
   16   	2.080e+05	4.116e-04	1.628e-05	  -29.43°	  -26.68°
   17   	2.210e+05	7.830e-04	3.096e-05	   56.64°	   59.39°
   18   	2.340e+05	1.226e-04	4.849e-06	  -63.18°	  -60.43°
   19   	2.470e+05	1.329e-03	5.255e-05	   41.65°	   44.40°
   20   	2.600e+05	3.315e-04	1.311e-05	  108.28°	  111.02°
   21   	2.730e+05	8.270e-04	3.270e-05	   30.56°	   33.30°
   22   	2.860e+05	4.959e-04	1.961e-05	   85.14°	   87.88°
   23   	2.990e+05	1.539e-04	6.084e-06	 -154.95°	 -152.21°
   24   	3.120e+05	2.650e-04	1.048e-05	   44.27°	   47.02°
   25   	3.250e+05	6.406e-04	2.533e-05	 -168.42°	 -165.68°
   26   	3.380e+05	2.685e-04	1.062e-05	  -71.26°	  -68.52°
   27   	3.510e+05	2.580e-04	1.020e-05	  172.55°	  175.30°
   28   	3.640e+05	3.854e-04	1.524e-05	 -108.69°	 -105.95°
   29   	3.770e+05	5.158e-04	2.040e-05	    5.46°	    8.21°
   30   	3.900e+05	1.962e-04	7.759e-06	 -141.20°	 -138.46°
Total Harmonic Distortion: 0.043956%(0.081448%)

.step freq=14000
N-Period=4
Fourier components of V(out)
DC component:-0.0131702

Harmonic	Frequency	 Fourier 	Normalized	 Phase  	Normalized
 Number 	  [Hz]   	Component	 Component	[degree]	Phase [deg]
    1   	1.400e+04	2.529e+01	1.000e+00	   -2.97°	    0.00°
    2   	2.800e+04	2.649e-03	1.048e-04	  149.26°	  152.23°
    3   	4.200e+04	1.305e-02	5.162e-04	 -105.14°	 -102.16°
    4   	5.600e+04	7.678e-04	3.036e-05	  109.78°	  112.75°
    5   	7.000e+04	1.385e-03	5.477e-05	 -117.07°	 -114.09°
    6   	8.400e+04	8.150e-04	3.223e-05	  114.24°	  117.21°
    7   	9.800e+04	7.475e-04	2.956e-05	  128.92°	  131.89°
    8   	1.120e+05	8.396e-04	3.320e-05	  129.29°	  132.26°
    9   	1.260e+05	6.259e-04	2.475e-05	  120.09°	  123.06°
   10   	1.400e+05	1.001e-03	3.958e-05	  126.21°	  129.19°
   11   	1.540e+05	5.126e-04	2.027e-05	 -136.23°	 -133.26°
   12   	1.680e+05	6.993e-04	2.766e-05	   98.74°	  101.71°
   13   	1.820e+05	9.982e-04	3.948e-05	 -127.16°	 -124.19°
   14   	1.960e+05	4.169e-04	1.649e-05	   22.71°	   25.68°
   15   	2.100e+05	3.743e-04	1.480e-05	 -148.89°	 -145.91°
   16   	2.240e+05	4.585e-04	1.813e-05	  -37.35°	  -34.37°
   17   	2.380e+05	8.674e-04	3.430e-05	   49.51°	   52.48°
   18   	2.520e+05	1.379e-04	5.454e-06	  -73.84°	  -70.87°
   19   	2.660e+05	1.448e-03	5.725e-05	   34.98°	   37.95°
   20   	2.800e+05	3.475e-04	1.374e-05	  101.34°	  104.32°
   21   	2.940e+05	8.971e-04	3.548e-05	   23.88°	   26.85°
   22   	3.080e+05	5.071e-04	2.005e-05	   76.91°	   79.89°
   23   	3.220e+05	1.524e-04	6.027e-06	 -161.50°	 -158.53°
   24   	3.360e+05	2.541e-04	1.005e-05	   33.15°	   36.13°
   25   	3.500e+05	6.689e-04	2.645e-05	 -174.33°	 -171.35°
   26   	3.640e+05	2.904e-04	1.149e-05	  -84.28°	  -81.30°
   27   	3.780e+05	2.702e-04	1.068e-05	  172.09°	  175.06°
   28   	3.920e+05	4.036e-04	1.596e-05	 -118.91°	 -115.94°
   29   	4.060e+05	5.192e-04	2.053e-05	   -4.98°	   -2.00°
   30   	4.200e+05	2.012e-04	7.957e-06	 -149.21°	 -146.24°
Total Harmonic Distortion: 0.054617%(0.093087%)

.step freq=15000
N-Period=4
Fourier components of V(out)
DC component:-0.0122786

Harmonic	Frequency	 Fourier 	Normalized	 Phase  	Normalized
 Number 	  [Hz]   	Component	 Component	[degree]	Phase [deg]
    1   	1.500e+04	2.528e+01	1.000e+00	   -3.21°	    0.00°
    2   	3.000e+04	2.830e-03	1.119e-04	  147.07°	  150.28°
    3   	4.500e+04	1.634e-02	6.465e-04	 -106.73°	 -103.53°
    4   	6.000e+04	8.580e-04	3.394e-05	  104.41°	  107.61°
    5   	7.500e+04	1.621e-03	6.411e-05	 -119.93°	 -116.73°
    6   	9.000e+04	8.731e-04	3.454e-05	  108.77°	  111.98°
    7   	1.050e+05	8.573e-04	3.391e-05	  122.62°	  125.82°
    8   	1.200e+05	9.014e-04	3.566e-05	  124.83°	  128.04°
    9   	1.350e+05	7.130e-04	2.820e-05	  110.76°	  113.97°
   10   	1.500e+05	1.084e-03	4.289e-05	  120.87°	  124.08°
   11   	1.650e+05	5.048e-04	1.997e-05	 -138.21°	 -135.01°
   12   	1.800e+05	7.543e-04	2.984e-05	   91.38°	   94.58°
   13   	1.950e+05	1.056e-03	4.176e-05	 -130.30°	 -127.09°
   14   	2.100e+05	4.639e-04	1.835e-05	   13.67°	   16.87°
   15   	2.250e+05	3.747e-04	1.482e-05	 -151.35°	 -148.15°
   16   	2.400e+05	5.043e-04	1.995e-05	  -45.69°	  -42.48°
   17   	2.550e+05	9.490e-04	3.754e-05	   42.17°	   45.37°
   18   	2.700e+05	1.522e-04	6.020e-06	  -84.71°	  -81.50°
   19   	2.850e+05	1.560e-03	6.173e-05	   28.29°	   31.49°
   20   	3.000e+05	3.609e-04	1.427e-05	   94.01°	   97.21°
   21   	3.150e+05	9.660e-04	3.821e-05	   17.25°	   20.46°
   22   	3.300e+05	5.097e-04	2.016e-05	   68.46°	   71.66°
   23   	3.450e+05	1.455e-04	5.757e-06	 -166.53°	 -163.33°
   24   	3.600e+05	2.331e-04	9.221e-06	   21.36°	   24.57°
   25   	3.750e+05	6.952e-04	2.750e-05	 -179.42°	 -176.21°
   26   	3.900e+05	3.097e-04	1.225e-05	  -98.41°	  -95.21°
   27   	4.050e+05	2.973e-04	1.176e-05	  172.92°	  176.13°
   28   	4.200e+05	4.149e-04	1.641e-05	 -129.61°	 -126.40°
   29   	4.350e+05	5.055e-04	2.000e-05	  -14.98°	  -11.77°
   30   	4.500e+05	2.014e-04	7.967e-06	 -156.32°	 -153.11°
Total Harmonic Distortion: 0.067466%(0.106476%)

.step freq=16000
N-Period=4
Fourier components of V(out)
DC component:-0.0114918

Harmonic	Frequency	 Fourier 	Normalized	 Phase  	Normalized
 Number 	  [Hz]   	Component	 Component	[degree]	Phase [deg]
    1   	1.600e+04	2.528e+01	1.000e+00	   -3.44°	    0.00°
    2   	3.200e+04	3.014e-03	1.192e-04	  144.80°	  148.24°
    3   	4.800e+04	2.027e-02	8.020e-04	 -108.33°	 -104.89°
    4   	6.400e+04	9.660e-04	3.822e-05	   99.12°	  102.56°
    5   	8.000e+04	1.919e-03	7.594e-05	 -122.99°	 -119.55°
    6   	9.600e+04	9.403e-04	3.720e-05	  102.64°	  106.08°
    7   	1.120e+05	9.783e-04	3.871e-05	  116.63°	  120.07°
    8   	1.280e+05	9.589e-04	3.794e-05	  119.81°	  123.25°
    9   	1.440e+05	8.145e-04	3.223e-05	  102.02°	  105.46°
   10   	1.600e+05	1.161e-03	4.592e-05	  115.62°	  119.06°
   11   	1.760e+05	4.880e-04	1.931e-05	 -139.76°	 -136.32°
   12   	1.920e+05	8.037e-04	3.180e-05	   84.54°	   87.98°
   13   	2.080e+05	1.110e-03	4.390e-05	 -132.76°	 -129.32°
   14   	2.240e+05	5.099e-04	2.017e-05	    5.27°	    8.71°
   15   	2.400e+05	3.750e-04	1.484e-05	 -150.42°	 -146.98°
   16   	2.560e+05	5.531e-04	2.188e-05	  -53.22°	  -49.78°
   17   	2.720e+05	1.022e-03	4.043e-05	   34.60°	   38.04°
   18   	2.880e+05	1.720e-04	6.806e-06	  -93.21°	  -89.77°
   19   	3.040e+05	1.671e-03	6.609e-05	   22.04°	   25.48°
   20   	3.200e+05	3.669e-04	1.452e-05	   87.46°	   90.90°
   21   	3.360e+05	1.041e-03	4.118e-05	   11.45°	   14.89°
   22   	3.520e+05	5.064e-04	2.003e-05	   61.07°	   64.51°
   23   	3.680e+05	1.352e-04	5.351e-06	 -169.38°	 -165.94°
   24   	3.840e+05	2.078e-04	8.222e-06	   10.17°	   13.61°
   25   	4.000e+05	7.321e-04	2.896e-05	  177.25°	  180.69°
   26   	4.160e+05	3.328e-04	1.317e-05	 -112.08°	 -108.64°
   27   	4.320e+05	3.503e-04	1.386e-05	  175.45°	  178.89°
   28   	4.480e+05	4.314e-04	1.707e-05	 -140.25°	 -136.81°
   29   	4.640e+05	4.818e-04	1.906e-05	  -24.86°	  -21.42°
   30   	4.800e+05	2.040e-04	8.072e-06	 -164.49°	 -161.05°
Total Harmonic Distortion: 0.082881%(0.122007%)

.step freq=17000
N-Period=4
Fourier components of V(out)
DC component:-0.010779

Harmonic	Frequency	 Fourier 	Normalized	 Phase  	Normalized
 Number 	  [Hz]   	Component	 Component	[degree]	Phase [deg]
    1   	1.700e+04	2.527e+01	1.000e+00	   -3.68°	    0.00°
    2   	3.400e+04	3.197e-03	1.265e-04	  142.20°	  145.88°
    3   	5.100e+04	2.495e-02	9.873e-04	 -109.99°	 -106.31°
    4   	6.800e+04	1.079e-03	4.271e-05	   93.74°	   97.42°
    5   	8.500e+04	2.307e-03	9.128e-05	 -126.52°	 -122.84°
    6   	1.020e+05	1.005e-03	3.977e-05	   96.68°	  100.35°
    7   	1.190e+05	1.102e-03	4.362e-05	  110.51°	  114.19°
    8   	1.360e+05	1.019e-03	4.033e-05	  114.75°	  118.43°
    9   	1.530e+05	9.118e-04	3.608e-05	   92.80°	   96.48°
   10   	1.700e+05	1.241e-03	4.911e-05	  109.82°	  113.50°
   11   	1.870e+05	4.695e-04	1.858e-05	 -139.49°	 -135.81°
   12   	2.040e+05	8.556e-04	3.386e-05	   76.81°	   80.49°
   13   	2.210e+05	1.161e-03	4.593e-05	 -135.70°	 -132.02°
   14   	2.380e+05	5.582e-04	2.209e-05	   -3.93°	   -0.25°
   15   	2.550e+05	3.710e-04	1.468e-05	 -151.16°	 -147.49°
   16   	2.720e+05	5.998e-04	2.374e-05	  -62.03°	  -58.35°
   17   	2.890e+05	1.099e-03	4.350e-05	   26.93°	   30.61°
   18   	3.060e+05	1.904e-04	7.536e-06	 -104.90°	 -101.22°
   19   	3.230e+05	1.771e-03	7.008e-05	   15.01°	   18.69°
   20   	3.400e+05	3.739e-04	1.479e-05	   80.89°	   84.57°
   21   	3.570e+05	1.102e-03	4.361e-05	    4.34°	    8.02°
   22   	3.740e+05	4.973e-04	1.968e-05	   53.00°	   56.67°
   23   	3.910e+05	1.323e-04	5.234e-06	 -170.49°	 -166.81°
   24   	4.080e+05	1.768e-04	6.998e-06	   -3.82°	   -0.14°
   25   	4.250e+05	7.693e-04	3.045e-05	  172.36°	  176.04°
   26   	4.420e+05	3.573e-04	1.414e-05	 -126.61°	 -122.93°
   27   	4.590e+05	4.090e-04	1.619e-05	  172.32°	  176.00°
   28   	4.760e+05	4.430e-04	1.753e-05	 -151.85°	 -148.18°
   29   	4.930e+05	4.476e-04	1.771e-05	  -34.17°	  -30.49°
   30   	5.100e+05	2.051e-04	8.119e-06	 -173.42°	 -169.74°
Total Harmonic Distortion: 0.101302%(0.140346%)

.step freq=18000
N-Period=4
Fourier components of V(out)
DC component:-0.0101288

Harmonic	Frequency	 Fourier 	Normalized	 Phase  	Normalized
 Number 	  [Hz]   	Component	 Component	[degree]	Phase [deg]
    1   	1.800e+04	2.526e+01	1.000e+00	   -3.92°	    0.00°
    2   	3.600e+04	3.375e-03	1.336e-04	  139.26°	  143.18°
    3   	5.400e+04	3.051e-02	1.208e-03	 -111.65°	 -107.72°
    4   	7.200e+04	1.207e-03	4.778e-05	   87.97°	   91.89°
    5   	9.000e+04	2.815e-03	1.114e-04	 -130.14°	 -126.21°
    6   	1.080e+05	1.076e-03	4.260e-05	   90.34°	   94.26°
    7   	1.260e+05	1.241e-03	4.912e-05	  105.18°	  109.10°
    8   	1.440e+05	1.082e-03	4.281e-05	  109.56°	  113.48°
    9   	1.620e+05	1.032e-03	4.083e-05	   84.49°	   88.41°
   10   	1.800e+05	1.322e-03	5.232e-05	  104.05°	  107.97°
   11   	1.980e+05	4.412e-04	1.746e-05	 -138.26°	 -134.33°
   12   	2.160e+05	9.025e-04	3.572e-05	   69.05°	   72.97°
   13   	2.340e+05	1.210e-03	4.789e-05	 -137.58°	 -133.66°
   14   	2.520e+05	6.126e-04	2.425e-05	  -13.47°	   -9.55°
   15   	2.700e+05	3.783e-04	1.498e-05	 -146.83°	 -142.91°
   16   	2.880e+05	6.553e-04	2.594e-05	  -70.61°	  -66.69°
   17   	3.060e+05	1.163e-03	4.603e-05	   18.89°	   22.81°
   18   	3.240e+05	2.134e-04	8.446e-06	 -116.21°	 -112.29°
   19   	3.420e+05	1.864e-03	7.379e-05	    8.61°	   12.53°
   20   	3.600e+05	3.837e-04	1.519e-05	   75.51°	   79.43°
   21   	3.780e+05	1.167e-03	4.621e-05	   -1.53°	    2.39°
   22   	3.960e+05	4.882e-04	1.932e-05	   46.25°	   50.17°
   23   	4.140e+05	1.263e-04	4.998e-06	 -170.47°	 -166.55°
   24   	4.320e+05	1.403e-04	5.553e-06	  -19.45°	  -15.53°
   25   	4.500e+05	8.208e-04	3.249e-05	  169.17°	  173.09°
   26   	4.680e+05	3.902e-04	1.545e-05	 -140.91°	 -136.99°
   27   	4.860e+05	4.987e-04	1.974e-05	  170.38°	  174.30°
   28   	5.040e+05	4.582e-04	1.814e-05	 -163.46°	 -159.53°
   29   	5.220e+05	3.973e-04	1.573e-05	  -43.30°	  -39.38°
   30   	5.400e+05	2.013e-04	7.968e-06	  177.06°	  180.99°
Total Harmonic Distortion: 0.123281%(0.162087%)

.step freq=19000
N-Period=4
Fourier components of V(out)
DC component:-0.00952783

Harmonic	Frequency	 Fourier 	Normalized	 Phase  	Normalized
 Number 	  [Hz]   	Component	 Component	[degree]	Phase [deg]
    1   	1.900e+04	2.526e+01	1.000e+00	   -4.17°	    0.00°
    2   	3.800e+04	3.569e-03	1.413e-04	  136.12°	  140.29°
    3   	5.700e+04	3.712e-02	1.470e-03	 -113.35°	 -109.18°
    4   	7.600e+04	1.360e-03	5.385e-05	   82.43°	   86.60°
    5   	9.500e+04	3.489e-03	1.381e-04	 -134.09°	 -129.92°
    6   	1.140e+05	1.154e-03	4.569e-05	   83.38°	   87.55°
    7   	1.330e+05	1.397e-03	5.530e-05	  100.28°	  104.45°
    8   	1.520e+05	1.132e-03	4.481e-05	  103.80°	  107.97°
    9   	1.710e+05	1.162e-03	4.601e-05	   75.88°	   80.05°
   10   	1.900e+05	1.393e-03	5.516e-05	   98.06°	  102.23°
   11   	2.090e+05	4.188e-04	1.658e-05	 -133.61°	 -129.44°
   12   	2.280e+05	9.508e-04	3.765e-05	   61.27°	   65.44°
   13   	2.470e+05	1.268e-03	5.020e-05	 -139.42°	 -135.25°
   14   	2.660e+05	6.651e-04	2.633e-05	  -22.53°	  -18.36°
   15   	2.850e+05	3.967e-04	1.571e-05	 -143.37°	 -139.19°
   16   	3.040e+05	7.081e-04	2.804e-05	  -79.71°	  -75.54°
   17   	3.230e+05	1.227e-03	4.860e-05	   10.97°	   15.15°
   18   	3.420e+05	2.430e-04	9.620e-06	 -128.48°	 -124.31°
   19   	3.610e+05	1.951e-03	7.725e-05	    1.89°	    6.06°
   20   	3.800e+05	3.867e-04	1.531e-05	   70.49°	   74.66°
   21   	3.990e+05	1.223e-03	4.841e-05	   -8.12°	   -3.95°
   22   	4.180e+05	4.715e-04	1.867e-05	   39.44°	   43.61°
   23   	4.370e+05	1.327e-04	5.255e-06	 -168.23°	 -164.06°
   24   	4.560e+05	1.001e-04	3.963e-06	  -38.09°	  -33.92°
   25   	4.750e+05	8.816e-04	3.491e-05	  165.24°	  169.41°
   26   	4.940e+05	4.145e-04	1.641e-05	 -156.08°	 -151.91°
   27   	5.130e+05	5.966e-04	2.362e-05	  164.91°	  169.08°
   28   	5.320e+05	4.651e-04	1.842e-05	 -175.88°	 -171.71°
   29   	5.510e+05	3.346e-04	1.325e-05	  -49.33°	  -45.16°
   30   	5.700e+05	2.007e-04	7.948e-06	  168.23°	  172.40°
Total Harmonic Distortion: 0.149496%(0.187674%)

.step freq=20000
N-Period=4
Fourier components of V(out)
DC component:-0.00896335

Harmonic	Frequency	 Fourier 	Normalized	 Phase  	Normalized
 Number 	  [Hz]   	Component	 Component	[degree]	Phase [deg]
    1   	2.000e+04	2.525e+01	1.000e+00	   -4.43°	    0.00°
    2   	4.000e+04	3.758e-03	1.489e-04	  132.54°	  136.96°
    3   	6.000e+04	4.499e-02	1.782e-03	 -115.12°	 -110.70°
    4   	8.000e+04	1.533e-03	6.070e-05	   76.47°	   80.89°
    5   	1.000e+05	4.377e-03	1.734e-04	 -138.32°	 -133.89°
    6   	1.200e+05	1.245e-03	4.932e-05	   76.10°	   80.52°
    7   	1.400e+05	1.561e-03	6.185e-05	   95.95°	  100.37°
    8   	1.600e+05	1.189e-03	4.711e-05	   97.61°	  102.04°
    9   	1.800e+05	1.299e-03	5.144e-05	   67.48°	   71.90°
   10   	2.000e+05	1.461e-03	5.788e-05	   91.84°	   96.27°
   11   	2.200e+05	4.069e-04	1.612e-05	 -126.41°	 -121.99°
   12   	2.400e+05	9.842e-04	3.898e-05	   53.12°	   57.55°
   13   	2.600e+05	1.327e-03	5.257e-05	 -141.03°	 -136.60°
   14   	2.800e+05	7.158e-04	2.835e-05	  -32.60°	  -28.18°
   15   	3.000e+05	4.303e-04	1.704e-05	 -139.30°	 -134.87°
   16   	3.200e+05	7.599e-04	3.010e-05	  -88.96°	  -84.53°
   17   	3.400e+05	1.281e-03	5.073e-05	    2.80°	    7.23°
   18   	3.600e+05	2.665e-04	1.056e-05	 -140.72°	 -136.30°
   19   	3.800e+05	2.023e-03	8.013e-05	   -4.80°	   -0.38°
   20   	4.000e+05	3.969e-04	1.572e-05	   65.78°	   70.21°
   21   	4.200e+05	1.273e-03	5.041e-05	  -14.54°	  -10.12°
   22   	4.400e+05	4.503e-04	1.784e-05	   33.76°	   38.18°
   23   	4.600e+05	1.428e-04	5.654e-06	 -166.48°	 -162.05°
   24   	4.800e+05	5.906e-05	2.339e-06	  -78.97°	  -74.55°
   25   	5.000e+05	9.527e-04	3.773e-05	  160.94°	  165.36°
   26   	5.200e+05	4.490e-04	1.778e-05	 -171.32°	 -166.89°
   27   	5.400e+05	7.075e-04	2.802e-05	  157.96°	  162.39°
   28   	5.600e+05	4.647e-04	1.841e-05	  170.95°	  175.37°
   29   	5.800e+05	2.641e-04	1.046e-05	  -51.62°	  -47.19°
   30   	6.000e+05	1.806e-04	7.154e-06	  157.44°	  161.86°
Total Harmonic Distortion: 0.180766%(0.218063%)

.step freq=21000
N-Period=4
Fourier components of V(out)
DC component:-0.00841699

Harmonic	Frequency	 Fourier 	Normalized	 Phase  	Normalized
 Number 	  [Hz]   	Component	 Component	[degree]	Phase [deg]
    1   	2.100e+04	2.524e+01	1.000e+00	   -4.69°	    0.00°
    2   	4.200e+04	3.961e-03	1.569e-04	  128.42°	  133.11°
    3   	6.300e+04	5.438e-02	2.154e-03	 -116.98°	 -112.29°
    4   	8.400e+04	1.730e-03	6.855e-05	   70.31°	   75.00°
    5   	1.050e+05	5.561e-03	2.203e-04	 -142.81°	 -138.12°
    6   	1.260e+05	1.339e-03	5.307e-05	   68.46°	   73.15°
    7   	1.470e+05	1.751e-03	6.939e-05	   92.41°	   97.10°
    8   	1.680e+05	1.236e-03	4.899e-05	   91.08°	   95.77°
    9   	1.890e+05	1.453e-03	5.757e-05	   59.18°	   63.87°
   10   	2.100e+05	1.524e-03	6.040e-05	   85.35°	   90.04°
   11   	2.310e+05	4.190e-04	1.660e-05	 -116.94°	 -112.25°
   12   	2.520e+05	1.023e-03	4.053e-05	   44.85°	   49.54°
   13   	2.730e+05	1.401e-03	5.550e-05	 -142.39°	 -137.71°
   14   	2.940e+05	7.699e-04	3.050e-05	  -42.28°	  -37.59°
   15   	3.150e+05	4.933e-04	1.954e-05	 -136.24°	 -131.56°
   16   	3.360e+05	8.167e-04	3.236e-05	  -98.89°	  -94.20°
   17   	3.570e+05	1.324e-03	5.246e-05	   -5.38°	   -0.70°
   18   	3.780e+05	3.077e-04	1.219e-05	 -154.50°	 -149.81°
   19   	3.990e+05	2.092e-03	8.289e-05	  -11.26°	   -6.57°
   20   	4.200e+05	4.126e-04	1.635e-05	   62.37°	   67.06°
   21   	4.410e+05	1.327e-03	5.257e-05	  -20.74°	  -16.05°
   22   	4.620e+05	4.390e-04	1.739e-05	   28.52°	   33.21°
   23   	4.830e+05	1.609e-04	6.375e-06	 -166.01°	 -161.32°
   24   	5.040e+05	5.419e-05	2.147e-06	 -142.77°	 -138.09°
   25   	5.250e+05	1.048e-03	4.151e-05	  156.32°	  161.01°
   26   	5.460e+05	4.841e-04	1.918e-05	  173.27°	  177.96°
   27   	5.670e+05	8.390e-04	3.324e-05	  150.10°	  154.79°
   28   	5.880e+05	4.669e-04	1.850e-05	  156.62°	  161.31°
   29   	6.090e+05	2.007e-04	7.953e-06	  -44.63°	  -39.94°
   30   	6.300e+05	1.602e-04	6.346e-06	  147.05°	  151.74°
Total Harmonic Distortion: 0.218191%(0.254326%)

.step freq=22000
N-Period=4
Fourier components of V(out)
DC component:-0.00787643

Harmonic	Frequency	 Fourier 	Normalized	 Phase  	Normalized
 Number 	  [Hz]   	Component	 Component	[degree]	Phase [deg]
    1   	2.200e+04	2.523e+01	1.000e+00	   -4.96°	    0.00°
    2   	4.400e+04	4.176e-03	1.655e-04	  123.71°	  128.67°
    3   	6.600e+04	6.561e-02	2.600e-03	 -118.96°	 -114.00°
    4   	8.800e+04	1.953e-03	7.741e-05	   63.91°	   68.87°
    5   	1.100e+05	7.140e-03	2.830e-04	 -147.61°	 -142.65°
    6   	1.320e+05	1.451e-03	5.753e-05	   60.63°	   65.59°
    7   	1.540e+05	1.965e-03	7.790e-05	   90.00°	   94.96°
    8   	1.760e+05	1.291e-03	5.117e-05	   83.58°	   88.54°
    9   	1.980e+05	1.613e-03	6.393e-05	   51.20°	   56.16°
   10   	2.200e+05	1.573e-03	6.235e-05	   78.18°	   83.14°
   11   	2.420e+05	4.558e-04	1.807e-05	 -107.73°	 -102.77°
   12   	2.640e+05	1.039e-03	4.118e-05	   36.32°	   41.28°
   13   	2.860e+05	1.473e-03	5.837e-05	 -143.64°	 -138.68°
   14   	3.080e+05	8.035e-04	3.185e-05	  -52.56°	  -47.60°
   15   	3.300e+05	5.799e-04	2.298e-05	 -134.81°	 -129.85°
   16   	3.520e+05	8.570e-04	3.397e-05	 -108.89°	 -103.93°
   17   	3.740e+05	1.338e-03	5.304e-05	  -13.61°	   -8.65°
   18   	3.960e+05	3.435e-04	1.361e-05	 -166.58°	 -161.62°
   19   	4.180e+05	2.142e-03	8.491e-05	  -17.42°	  -12.46°
   20   	4.400e+05	4.216e-04	1.671e-05	   59.50°	   64.46°
   21   	4.620e+05	1.390e-03	5.509e-05	  -27.04°	  -22.09°
   22   	4.840e+05	4.245e-04	1.682e-05	   25.75°	   30.71°
   23   	5.060e+05	1.926e-04	7.634e-06	 -161.39°	 -156.44°
   24   	5.280e+05	8.048e-05	3.190e-06	  164.05°	  169.01°
   25   	5.500e+05	1.162e-03	4.604e-05	  151.11°	  156.07°
   26   	5.720e+05	5.077e-04	2.012e-05	  158.76°	  163.72°
   27   	5.940e+05	9.810e-04	3.888e-05	  139.86°	  144.82°
   28   	6.160e+05	4.676e-04	1.853e-05	  143.11°	  148.07°
   29   	6.380e+05	1.922e-04	7.616e-06	  -19.23°	  -14.27°
   30   	6.600e+05	1.433e-04	5.681e-06	  133.57°	  138.53°
Total Harmonic Distortion: 0.263097%(0.297823%)

.step freq=23000
N-Period=4
Fourier components of V(out)
DC component:-0.00734146

Harmonic	Frequency	 Fourier 	Normalized	 Phase  	Normalized
 Number 	  [Hz]   	Component	 Component	[degree]	Phase [deg]
    1   	2.300e+04	2.522e+01	1.000e+00	   -5.24°	    0.00°
    2   	4.600e+04	4.423e-03	1.754e-04	  118.44°	  123.68°
    3   	6.900e+04	7.913e-02	3.138e-03	 -121.05°	 -115.81°
    4   	9.200e+04	2.239e-03	8.877e-05	   57.24°	   62.48°
    5   	1.150e+05	9.273e-03	3.677e-04	 -152.76°	 -147.52°
    6   	1.380e+05	1.592e-03	6.312e-05	   51.79°	   57.03°
    7   	1.610e+05	2.266e-03	8.986e-05	   89.00°	   94.24°
    8   	1.840e+05	1.329e-03	5.271e-05	   75.71°	   80.95°
    9   	2.070e+05	1.805e-03	7.158e-05	   43.37°	   48.61°
   10   	2.300e+05	1.610e-03	6.385e-05	   71.52°	   76.76°
   11   	2.530e+05	5.444e-04	2.159e-05	 -100.51°	  -95.27°
   12   	2.760e+05	1.050e-03	4.163e-05	   28.00°	   33.24°
   13   	2.990e+05	1.578e-03	6.258e-05	 -145.26°	 -140.01°
   14   	3.220e+05	8.465e-04	3.357e-05	  -62.88°	  -57.64°
   15   	3.450e+05	6.759e-04	2.680e-05	 -136.04°	 -130.80°
   16   	3.680e+05	9.043e-04	3.586e-05	 -119.06°	 -113.82°
   17   	3.910e+05	1.362e-03	5.400e-05	  -21.59°	  -16.35°
   18   	4.140e+05	3.838e-04	1.522e-05	  179.54°	  184.78°
   19   	4.370e+05	2.193e-03	8.696e-05	  -23.71°	  -18.47°
   20   	4.600e+05	4.542e-04	1.801e-05	   56.63°	   61.87°
   21   	4.830e+05	1.434e-03	5.688e-05	  -33.53°	  -28.29°
   22   	5.060e+05	4.202e-04	1.666e-05	   23.70°	   28.95°
   23   	5.290e+05	2.373e-04	9.410e-06	 -165.70°	 -160.45°
   24   	5.520e+05	1.353e-04	5.363e-06	  138.29°	  143.53°
   25   	5.750e+05	1.284e-03	5.093e-05	  144.95°	  150.19°
   26   	5.980e+05	5.331e-04	2.114e-05	  143.95°	  149.19°
   27   	6.210e+05	1.117e-03	4.430e-05	  129.57°	  134.81°
   28   	6.440e+05	4.489e-04	1.780e-05	  128.91°	  134.15°
   29   	6.670e+05	2.684e-04	1.064e-05	   -3.07°	    2.18°
   30   	6.900e+05	1.064e-04	4.219e-06	  122.92°	  128.16°
Total Harmonic Distortion: 0.317380%(0.350531%)

.step freq=24000
N-Period=4
Fourier components of V(out)
DC component:-0.00677276

Harmonic	Frequency	 Fourier 	Normalized	 Phase  	Normalized
 Number 	  [Hz]   	Component	 Component	[degree]	Phase [deg]
    1   	2.400e+04	2.521e+01	1.000e+00	   -5.54°	    0.00°
    2   	4.800e+04	4.723e-03	1.873e-04	  112.26°	  117.80°
    3   	7.200e+04	9.553e-02	3.790e-03	 -123.33°	 -117.80°
    4   	9.600e+04	2.568e-03	1.019e-04	   50.14°	   55.68°
    5   	1.200e+05	1.216e-02	4.826e-04	 -158.31°	 -152.78°
    6   	1.440e+05	1.734e-03	6.878e-05	   42.35°	   47.89°
    7   	1.680e+05	2.694e-03	1.069e-04	   89.15°	   94.69°
    8   	1.920e+05	1.353e-03	5.368e-05	   67.27°	   72.80°
    9   	2.160e+05	2.032e-03	8.061e-05	   35.81°	   41.35°
   10   	2.400e+05	1.647e-03	6.534e-05	   64.31°	   69.84°
   11   	2.640e+05	6.603e-04	2.619e-05	  -96.02°	  -90.49°
   12   	2.880e+05	1.070e-03	4.243e-05	   19.45°	   24.98°
   13   	3.120e+05	1.694e-03	6.719e-05	 -147.23°	 -141.70°
   14   	3.360e+05	8.814e-04	3.496e-05	  -73.60°	  -68.06°
   15   	3.600e+05	7.910e-04	3.138e-05	 -139.07°	 -133.54°
   16   	3.840e+05	9.511e-04	3.773e-05	 -130.84°	 -125.31°
   17   	4.080e+05	1.362e-03	5.403e-05	  -29.80°	  -24.26°
   18   	4.320e+05	4.402e-04	1.746e-05	  164.78°	  170.32°
   19   	4.560e+05	2.232e-03	8.856e-05	  -29.85°	  -24.31°
   20   	4.800e+05	4.937e-04	1.959e-05	   52.22°	   57.76°
   21   	5.040e+05	1.488e-03	5.904e-05	  -39.75°	  -34.21°
   22   	5.280e+05	4.308e-04	1.709e-05	   19.68°	   25.22°
   23   	5.520e+05	2.774e-04	1.101e-05	 -170.05°	 -164.51°
   24   	5.760e+05	1.837e-04	7.287e-06	  118.34°	  123.88°
   25   	6.000e+05	1.423e-03	5.645e-05	  138.07°	  143.61°
   26   	6.240e+05	5.572e-04	2.211e-05	  127.78°	  133.32°
   27   	6.480e+05	1.274e-03	5.053e-05	  118.70°	  124.24°
   28   	6.720e+05	4.346e-04	1.724e-05	  113.14°	  118.68°
   29   	6.960e+05	3.887e-04	1.542e-05	   -0.42°	    5.12°
   30   	7.200e+05	6.938e-05	2.752e-06	  121.29°	  126.82°
Total Harmonic Distortion: 0.383457%(0.414757%)

.step freq=25000
N-Period=4
Fourier components of V(out)
DC component:-0.00616535

Harmonic	Frequency	 Fourier 	Normalized	 Phase  	Normalized
 Number 	  [Hz]   	Component	 Component	[degree]	Phase [deg]
    1   	2.500e+04	2.519e+01	1.000e+00	   -5.85°	    0.00°
    2   	5.000e+04	5.091e-03	2.021e-04	  105.14°	  110.99°
    3   	7.500e+04	1.156e-01	4.588e-03	 -125.85°	 -120.00°
    4   	1.000e+05	2.985e-03	1.185e-04	   42.55°	   48.40°
    5   	1.250e+05	1.610e-02	6.391e-04	 -164.42°	 -158.57°
    6   	1.500e+05	1.915e-03	7.600e-05	   32.16°	   38.01°
    7   	1.750e+05	3.375e-03	1.340e-04	   89.87°	   95.72°
    8   	2.000e+05	1.368e-03	5.429e-05	   58.31°	   64.16°
    9   	2.250e+05	2.327e-03	9.235e-05	   28.64°	   34.49°
   10   	2.500e+05	1.668e-03	6.622e-05	   57.41°	   63.25°
   11   	2.750e+05	8.203e-04	3.256e-05	  -93.81°	  -87.96°
   12   	3.000e+05	1.071e-03	4.252e-05	   11.09°	   16.94°
   13   	3.250e+05	1.839e-03	7.299e-05	 -149.69°	 -143.85°
   14   	3.500e+05	9.113e-04	3.617e-05	  -84.43°	  -78.58°
   15   	3.750e+05	9.137e-04	3.627e-05	 -144.32°	 -138.47°
   16   	4.000e+05	9.925e-04	3.940e-05	 -142.44°	 -136.60°
   17   	4.250e+05	1.346e-03	5.343e-05	  -37.15°	  -31.31°
   18   	4.500e+05	5.002e-04	1.986e-05	  149.94°	  155.78°
   19   	4.750e+05	2.274e-03	9.028e-05	  -35.69°	  -29.84°
   20   	5.000e+05	5.529e-04	2.195e-05	   47.89°	   53.74°
   21   	5.250e+05	1.548e-03	6.145e-05	  -46.67°	  -40.82°
   22   	5.500e+05	4.564e-04	1.812e-05	   16.75°	   22.59°
   23   	5.750e+05	3.475e-04	1.379e-05	 -174.97°	 -169.12°
   24   	6.000e+05	2.284e-04	9.066e-06	  101.03°	  106.87°
   25   	6.250e+05	1.584e-03	6.287e-05	  130.37°	  136.22°
   26   	6.500e+05	5.638e-04	2.238e-05	  113.21°	  119.06°
   27   	6.750e+05	1.429e-03	5.671e-05	  106.18°	  112.03°
   28   	7.000e+05	4.033e-04	1.601e-05	   98.90°	  104.74°
   29   	7.250e+05	5.673e-04	2.252e-05	   -7.34°	   -1.49°
   30   	7.500e+05	3.694e-05	1.466e-06	  142.23°	  148.08°
Total Harmonic Distortion: 0.464634%(0.493897%)



Measurement: vrms
  step	RMS(v(out))	FROM	TO
     1	17.8997	0.005	0.01
     2	17.9005	0.005	0.01
     3	17.9002	0.005	0.01
     4	17.8995	0.005	0.01
     5	17.8986	0.005	0.01
     6	17.8975	0.005	0.01
     7	17.8961	0.005	0.01
     8	17.8945	0.005	0.01
     9	17.8927	0.005	0.00999994
    10	17.8905	0.005	0.01
    11	17.8882	0.005	0.01
    12	17.8856	0.005	0.01
    13	17.8827	0.005	0.01
    14	17.8795	0.005	0.01
    15	17.8761	0.005	0.01
    16	17.8723	0.005	0.01
    17	17.8682	0.005	0.01
    18	17.8636	0.005	0.01
    19	17.8587	0.005	0.01
    20	17.8532	0.005	0.01
    21	17.8472	0.005	0.01
    22	17.8405	0.005	0.01
    23	17.8331	0.005	0.01
    24	17.8246	0.005	0.01
    25	17.8149	0.005	0.01

Measurement: pout
  step	AVG(v(out)*i(rl))	FROM	TO
     1	40.05	0.005	0.01
     2	40.0536	0.005	0.01
     3	40.0522	0.005	0.01
     4	40.0492	0.005	0.01
     5	40.0451	0.005	0.01
     6	40.0399	0.005	0.01
     7	40.0337	0.005	0.01
     8	40.0265	0.005	0.01
     9	40.0187	0.005	0.00999994
    10	40.0089	0.005	0.01
    11	39.9984	0.005	0.01
    12	39.9867	0.005	0.01
    13	39.9739	0.005	0.01
    14	39.9598	0.005	0.01
    15	39.9443	0.005	0.01
    16	39.9274	0.005	0.01
    17	39.9089	0.005	0.01
    18	39.8886	0.005	0.01
    19	39.8665	0.005	0.01
    20	39.8422	0.005	0.01
    21	39.8154	0.005	0.01
    22	39.7856	0.005	0.01
    23	39.7524	0.005	0.01
    24	39.7148	0.005	0.01
    25	39.6715	0.005	0.01

Measurement: vout_max
  step	MAX(v(out))	FROM	TO
     1	25.1316	0	0.01
     2	25.2247	0	0.01
     3	25.2543	0	0.01
     4	25.2683	0	0.01
     5	25.276	0	0.01
     6	25.2802	0	0.01
     7	25.2825	0	0.01
     8	25.2835	0	0.01
     9	25.2834	0	0.00999994
    10	25.2825	0	0.01
    11	25.2809	0	0.01
    12	25.2787	0	0.01
    13	25.2761	0	0.01
    14	25.2731	0	0.01
    15	25.2695	0	0.01
    16	25.2656	0	0.01
    17	25.2612	0	0.01
    18	25.2566	0	0.01
    19	25.2514	0	0.01
    20	25.246	0	0.01
    21	25.2402	0	0.01
    22	25.234	0	0.01
    23	25.2275	0	0.01
    24	25.2207	0	0.01
    25	25.2135	0	0.01


Date: Sun Dec 15 23:22:27 2019
Total elapsed time: 1356.177 seconds.

tnom = 27
temp = 27
method = modified trap
totiter = 531809
traniter = 529165
tranpoints = 237265
accept = 225388
rejected = 11877
matrix size = 103
fillins = 180
Matrix Compiler1: 23.94 KB object code size  15.5/12.8/[8.1]
Matrix Compiler2: off  [6.4]/7.3/8.0

