Circuit: * C:\Users\bakaneko\Facultad\Materias\Circuitos Electrónicos II\TPS\REPO-TPS\REPO-DSE\Spice (Diego)\amplifier\amplifier_THD_vs_freq.asc

Direct Newton iteration failed to find .op point.  (Use ".option noopiter" to skip.)
Starting Gmin stepping
Gmin = 10
Gmin = 1.07374
Gmin = 0.115292
Gmin = 0.0123794
Gmin = 0.00132923
Gmin = 0.000142725
Gmin = 1.5325e-005
Gmin = 1.6455e-006
vernier = 0.5
vernier = 0.25
vernier = 0.125
vernier = 0.0625
vernier = 0.03125
vernier = 0.015625
vernier = 0.0078125
vernier = 0.00390625
vernier = 0.00195313
vernier = 0.000976563
Gmin = 2.05688e-006
vernier = 0.000488281
Gmin = 0
Gmin stepping failed

Starting source stepping with srcstepmethod=0
Source Step = 3.0303%
Source Step = 33.3333%
Source Step = 63.6364%
Source Step = 93.9394%
Source stepping succeeded in finding the operating point.

.step freq=0
Bad frequency found in .fourier command: ".fourier  0  30 4 v(out)"

.step freq=1000
N-Period=4
Fourier components of V(out)
DC component:-0.195

Harmonic	Frequency	 Fourier 	Normalized	 Phase  	Normalized
 Number 	  [Hz]   	Component	 Component	[degree]	Phase [deg]
    1   	1.000e+03	2.531e+01	1.000e+00	    0.37°	    0.00°
    2   	2.000e+03	1.607e-03	6.347e-05	  174.36°	  174.00°
    3   	3.000e+03	9.106e-04	3.597e-05	 -177.78°	 -178.14°
    4   	4.000e+03	7.673e-04	3.031e-05	 -179.52°	 -179.88°
    5   	5.000e+03	5.762e-04	2.276e-05	 -175.05°	 -175.42°
    6   	6.000e+03	5.357e-04	2.116e-05	  179.92°	  179.56°
    7   	7.000e+03	4.144e-04	1.637e-05	 -178.17°	 -178.53°
    8   	8.000e+03	4.123e-04	1.629e-05	 -179.59°	 -179.96°
    9   	9.000e+03	3.312e-04	1.308e-05	 -175.69°	 -176.05°
   10   	1.000e+04	3.353e-04	1.325e-05	 -179.40°	 -179.77°
   11   	1.100e+04	2.746e-04	1.085e-05	 -171.28°	 -171.64°
   12   	1.200e+04	2.701e-04	1.067e-05	 -179.72°	 -180.08°
   13   	1.300e+04	2.286e-04	9.031e-06	 -170.50°	 -170.87°
   14   	1.400e+04	2.174e-04	8.587e-06	  179.45°	  179.08°
   15   	1.500e+04	1.934e-04	7.641e-06	 -177.81°	 -178.18°
   16   	1.600e+04	1.836e-04	7.251e-06	  178.83°	  178.47°
   17   	1.700e+04	1.764e-04	6.967e-06	  171.56°	  171.19°
   18   	1.800e+04	1.698e-04	6.710e-06	  179.42°	  179.05°
   19   	1.900e+04	1.656e-04	6.543e-06	  167.92°	  167.55°
   20   	2.000e+04	1.660e-04	6.559e-06	 -179.12°	 -179.48°
   21   	2.100e+04	1.479e-04	5.843e-06	  174.62°	  174.25°
   22   	2.200e+04	1.575e-04	6.222e-06	 -178.10°	 -178.47°
   23   	2.300e+04	1.293e-04	5.109e-06	 -173.65°	 -174.01°
   24   	2.400e+04	1.370e-04	5.413e-06	 -178.60°	 -178.97°
   25   	2.500e+04	1.142e-04	4.513e-06	 -168.89°	 -169.25°
   26   	2.600e+04	1.110e-04	4.385e-06	  179.00°	  178.64°
   27   	2.700e+04	1.050e-04	4.147e-06	 -178.77°	 -179.13°
   28   	2.800e+04	9.309e-05	3.678e-06	  176.34°	  175.98°
   29   	2.900e+04	1.090e-04	4.306e-06	  166.64°	  166.27°
   30   	3.000e+04	9.070e-05	3.583e-06	  177.06°	  176.69°
Total Harmonic Distortion: 0.009484%(0.058591%)

.step freq=2000
N-Period=4
Fourier components of V(out)
DC component:-0.0931767

Harmonic	Frequency	 Fourier 	Normalized	 Phase  	Normalized
 Number 	  [Hz]   	Component	 Component	[degree]	Phase [deg]
    1   	2.000e+03	2.532e+01	1.000e+00	   -0.03°	    0.00°
    2   	4.000e+03	6.249e-04	2.468e-05	  163.90°	  163.93°
    3   	6.000e+03	1.848e-04	7.301e-06	 -149.75°	 -149.72°
    4   	8.000e+03	2.348e-04	9.273e-06	  179.52°	  179.55°
    5   	1.000e+04	1.640e-04	6.478e-06	 -141.69°	 -141.66°
    6   	1.200e+04	2.047e-04	8.086e-06	  177.20°	  177.23°
    7   	1.400e+04	1.079e-04	4.262e-06	 -165.29°	 -165.26°
    8   	1.600e+04	1.742e-04	6.882e-06	  179.07°	  179.10°
    9   	1.800e+04	1.047e-04	4.137e-06	 -152.22°	 -152.19°
   10   	2.000e+04	1.505e-04	5.943e-06	 -179.74°	 -179.71°
   11   	2.200e+04	1.097e-04	4.335e-06	 -131.04°	 -131.01°
   12   	2.400e+04	1.062e-04	4.196e-06	  179.23°	  179.26°
   13   	2.600e+04	9.270e-05	3.662e-06	 -122.46°	 -122.43°
   14   	2.800e+04	6.264e-05	2.474e-06	  172.89°	  172.92°
   15   	3.000e+04	4.478e-05	1.769e-06	 -154.09°	 -154.06°
   16   	3.200e+04	4.312e-05	1.703e-06	  164.18°	  164.21°
   17   	3.400e+04	6.800e-05	2.686e-06	  133.19°	  133.22°
   18   	3.600e+04	5.273e-05	2.083e-06	  170.53°	  170.56°
   19   	3.800e+04	9.097e-05	3.594e-06	  127.32°	  127.35°
   20   	4.000e+04	7.509e-05	2.966e-06	  179.42°	  179.45°
   21   	4.200e+04	6.032e-05	2.383e-06	  147.17°	  147.20°
   22   	4.400e+04	8.178e-05	3.231e-06	 -176.90°	 -176.87°
   23   	4.600e+04	4.308e-05	1.702e-06	 -139.36°	 -139.33°
   24   	4.800e+04	5.847e-05	2.310e-06	 -178.30°	 -178.27°
   25   	5.000e+04	5.265e-05	2.080e-06	 -108.23°	 -108.20°
   26   	5.200e+04	2.154e-05	8.508e-07	  163.77°	  163.80°
   27   	5.400e+04	2.012e-05	7.948e-07	 -145.52°	 -145.49°
   28   	5.600e+04	1.076e-05	4.250e-07	   82.55°	   82.58°
   29   	5.800e+04	5.923e-05	2.340e-06	  121.23°	  121.26°
   30   	6.000e+04	1.156e-05	4.566e-07	  142.44°	  142.47°
Total Harmonic Distortion: 0.003324%(0.014522%)

.step freq=3000
N-Period=4
Fourier components of V(out)
DC component:-0.061328

Harmonic	Frequency	 Fourier 	Normalized	 Phase  	Normalized
 Number 	  [Hz]   	Component	 Component	[degree]	Phase [deg]
    1   	3.000e+03	2.532e+01	1.000e+00	   -0.26°	    0.00°
    2   	6.000e+03	5.588e-04	2.207e-05	  160.14°	  160.39°
    3   	9.000e+03	2.016e-04	7.965e-06	  -97.55°	  -97.30°
    4   	1.200e+04	1.633e-04	6.451e-06	  175.32°	  175.58°
    5   	1.500e+04	1.640e-04	6.478e-06	 -109.61°	 -109.35°
    6   	1.800e+04	1.806e-04	7.135e-06	  172.69°	  172.95°
    7   	2.100e+04	7.516e-05	2.969e-06	 -149.36°	 -149.10°
    8   	2.400e+04	1.670e-04	6.599e-06	  176.13°	  176.39°
    9   	2.700e+04	9.482e-05	3.745e-06	 -134.80°	 -134.54°
   10   	3.000e+04	1.527e-04	6.032e-06	  178.08°	  178.34°
   11   	3.300e+04	1.291e-04	5.098e-06	 -109.69°	 -109.44°
   12   	3.600e+04	9.939e-05	3.926e-06	  175.30°	  175.56°
   13   	3.900e+04	1.234e-04	4.875e-06	  -97.56°	  -97.31°
   14   	4.200e+04	4.220e-05	1.667e-06	  155.21°	  155.46°
   15   	4.500e+04	3.904e-05	1.542e-06	 -106.94°	 -106.68°
   16   	4.800e+04	2.439e-05	9.634e-07	  113.51°	  113.77°
   17   	5.100e+04	7.971e-05	3.149e-06	  112.60°	  112.86°
   18   	5.400e+04	3.487e-05	1.378e-06	  152.48°	  152.74°
   19   	5.700e+04	1.288e-04	5.087e-06	  112.35°	  112.61°
   20   	6.000e+04	7.533e-05	2.976e-06	  176.19°	  176.45°
   21   	6.300e+04	7.600e-05	3.002e-06	  124.53°	  124.79°
   22   	6.600e+04	9.371e-05	3.702e-06	  179.70°	  179.96°
   23   	6.900e+04	4.241e-05	1.675e-06	 -113.70°	 -113.44°
   24   	7.200e+04	6.097e-05	2.408e-06	  174.22°	  174.48°
   25   	7.500e+04	8.545e-05	3.375e-06	  -87.95°	  -87.69°
   26   	7.800e+04	1.369e-05	5.408e-07	   88.20°	   88.46°
   27   	8.100e+04	2.945e-05	1.163e-06	  -92.60°	  -92.34°
   28   	8.400e+04	3.895e-05	1.539e-06	   19.41°	   19.67°
   29   	8.700e+04	7.959e-05	3.144e-06	  105.55°	  105.81°
   30   	9.000e+04	1.706e-05	6.740e-07	   13.52°	   13.77°
Total Harmonic Distortion: 0.003103%(0.010252%)

.step freq=4000
N-Period=4
Fourier components of V(out)
DC component:-0.0457771

Harmonic	Frequency	 Fourier 	Normalized	 Phase  	Normalized
 Number 	  [Hz]   	Component	 Component	[degree]	Phase [deg]
    1   	4.000e+03	2.532e+01	1.000e+00	   -0.44°	    0.00°
    2   	8.000e+03	6.178e-04	2.441e-05	  159.95°	  160.39°
    3   	1.200e+04	3.790e-04	1.497e-05	  -87.42°	  -86.98°
    4   	1.600e+04	1.581e-04	6.245e-06	  169.25°	  169.69°
    5   	2.000e+04	2.118e-04	8.367e-06	  -99.51°	  -99.07°
    6   	2.400e+04	1.990e-04	7.860e-06	  167.98°	  168.42°
    7   	2.800e+04	8.246e-05	3.257e-06	 -146.23°	 -145.79°
    8   	3.200e+04	1.913e-04	7.558e-06	  173.02°	  173.46°
    9   	3.600e+04	1.099e-04	4.340e-06	 -134.09°	 -133.65°
   10   	4.000e+04	1.825e-04	7.209e-06	  175.68°	  176.12°
   11   	4.400e+04	1.618e-04	6.391e-06	 -104.75°	 -104.31°
   12   	4.800e+04	1.175e-04	4.641e-06	  170.91°	  171.35°
   13   	5.200e+04	1.696e-04	6.699e-06	  -91.00°	  -90.56°
   14   	5.600e+04	4.530e-05	1.789e-06	  135.73°	  136.17°
   15   	6.000e+04	6.040e-05	2.386e-06	  -91.22°	  -90.78°
   16   	6.400e+04	3.652e-05	1.442e-06	   72.85°	   73.30°
   17   	6.800e+04	1.043e-04	4.119e-06	  108.35°	  108.80°
   18   	7.200e+04	2.989e-05	1.181e-06	  128.75°	  129.19°
   19   	7.600e+04	1.852e-04	7.317e-06	  107.99°	  108.43°
   20   	8.000e+04	8.730e-05	3.449e-06	  173.19°	  173.63°
   21   	8.400e+04	1.134e-04	4.478e-06	  113.73°	  114.17°
   22   	8.800e+04	1.202e-04	4.749e-06	  174.86°	  175.30°
   23   	9.200e+04	4.857e-05	1.919e-06	 -104.26°	 -103.82°
   24   	9.600e+04	7.765e-05	3.067e-06	  164.32°	  164.76°
   25   	1.000e+05	1.273e-04	5.030e-06	  -86.74°	  -86.30°
   26   	1.040e+05	2.762e-05	1.091e-06	   57.68°	   58.12°
   27   	1.080e+05	5.313e-05	2.099e-06	  -93.18°	  -92.74°
   28   	1.120e+05	6.849e-05	2.706e-06	    8.12°	    8.56°
   29   	1.160e+05	1.081e-04	4.270e-06	  101.41°	  101.86°
   30   	1.200e+05	3.631e-05	1.434e-06	   -9.75°	   -9.31°
Total Harmonic Distortion: 0.003802%(0.014395%)

.step freq=5000
N-Period=4
Fourier components of V(out)
DC component:-0.0365627

Harmonic	Frequency	 Fourier 	Normalized	 Phase  	Normalized
 Number 	  [Hz]   	Component	 Component	[degree]	Phase [deg]
    1   	5.000e+03	2.531e+01	1.000e+00	   -0.61°	    0.00°
    2   	1.000e+04	7.131e-04	2.817e-05	  160.37°	  160.98°
    3   	1.500e+04	6.549e-04	2.587e-05	  -87.56°	  -86.95°
    4   	2.000e+04	1.734e-04	6.850e-06	  162.91°	  163.52°
    5   	2.500e+04	2.662e-04	1.052e-05	  -96.85°	  -96.24°
    6   	3.000e+04	2.291e-04	9.051e-06	  163.32°	  163.93°
    7   	3.500e+04	1.010e-04	3.990e-06	 -151.46°	 -150.85°
    8   	4.000e+04	2.242e-04	8.855e-06	  170.00°	  170.61°
    9   	4.500e+04	1.294e-04	5.111e-06	 -140.19°	 -139.58°
   10   	5.000e+04	2.217e-04	8.756e-06	  173.35°	  173.96°
   11   	5.500e+04	1.943e-04	7.674e-06	 -104.21°	 -103.60°
   12   	6.000e+04	1.450e-04	5.726e-06	  166.72°	  167.33°
   13   	6.500e+04	2.207e-04	8.716e-06	  -89.25°	  -88.64°
   14   	7.000e+04	5.780e-05	2.283e-06	  121.26°	  121.87°
   15   	7.500e+04	8.741e-05	3.453e-06	  -89.75°	  -89.14°
   16   	8.000e+04	5.779e-05	2.283e-06	   56.07°	   56.68°
   17   	8.500e+04	1.352e-04	5.341e-06	  107.85°	  108.46°
   18   	9.000e+04	2.940e-05	1.162e-06	  101.54°	  102.15°
   19   	9.500e+04	2.538e-04	1.003e-05	  105.02°	  105.63°
   20   	1.000e+05	1.027e-04	4.056e-06	  170.46°	  171.07°
   21   	1.050e+05	1.610e-04	6.361e-06	  106.32°	  106.93°
   22   	1.100e+05	1.525e-04	6.023e-06	  169.44°	  170.05°
   23   	1.150e+05	5.585e-05	2.206e-06	  -99.76°	  -99.15°
   24   	1.200e+05	9.949e-05	3.930e-06	  154.32°	  154.93°
   25   	1.250e+05	1.738e-04	6.867e-06	  -90.06°	  -89.45°
   26   	1.300e+05	4.535e-05	1.791e-06	   46.49°	   47.10°
   27   	1.350e+05	7.914e-05	3.126e-06	 -101.98°	 -101.37°
   28   	1.400e+05	9.884e-05	3.905e-06	   -0.96°	   -0.35°
   29   	1.450e+05	1.429e-04	5.646e-06	   98.46°	   99.07°
   30   	1.500e+05	5.561e-05	2.197e-06	  -24.87°	  -24.26°
Total Harmonic Distortion: 0.004945%(0.020357%)

.step freq=6000
N-Period=4
Fourier components of V(out)
DC component:-0.0304651

Harmonic	Frequency	 Fourier 	Normalized	 Phase  	Normalized
 Number 	  [Hz]   	Component	 Component	[degree]	Phase [deg]
    1   	6.000e+03	2.531e+01	1.000e+00	   -0.77°	    0.00°
    2   	1.200e+04	8.210e-04	3.243e-05	  160.44°	  161.21°
    3   	1.800e+04	1.053e-03	4.162e-05	  -89.29°	  -88.52°
    4   	2.400e+04	1.955e-04	7.723e-06	  157.21°	  157.98°
    5   	3.000e+04	3.221e-04	1.272e-05	  -96.58°	  -95.81°
    6   	3.600e+04	2.634e-04	1.041e-05	  159.49°	  160.26°
    7   	4.200e+04	1.251e-04	4.940e-06	 -159.58°	 -158.81°
    8   	4.800e+04	2.630e-04	1.039e-05	  167.38°	  168.16°
    9   	5.400e+04	1.505e-04	5.945e-06	 -148.47°	 -147.70°
   10   	6.000e+04	2.681e-04	1.059e-05	  170.50°	  171.27°
   11   	6.600e+04	2.261e-04	8.932e-06	 -104.97°	 -104.20°
   12   	7.200e+04	1.774e-04	7.007e-06	  161.45°	  162.22°
   13   	7.800e+04	2.760e-04	1.090e-05	  -89.50°	  -88.73°
   14   	8.400e+04	7.463e-05	2.948e-06	  108.40°	  109.17°
   15   	9.000e+04	1.162e-04	4.590e-06	  -92.70°	  -91.93°
   16   	9.600e+04	8.172e-05	3.228e-06	   44.07°	   44.84°
   17   	1.020e+05	1.738e-04	6.866e-06	  107.38°	  108.15°
   18   	1.080e+05	2.951e-05	1.166e-06	   76.82°	   77.59°
   19   	1.140e+05	3.327e-04	1.314e-05	  101.63°	  102.40°
   20   	1.200e+05	1.227e-04	4.847e-06	  167.68°	  168.45°
   21   	1.260e+05	2.147e-04	8.480e-06	   99.73°	  100.50°
   22   	1.320e+05	1.888e-04	7.458e-06	  162.75°	  163.52°
   23   	1.380e+05	6.522e-05	2.576e-06	  -97.89°	  -97.12°
   24   	1.440e+05	1.223e-04	4.833e-06	  143.09°	  143.86°
   25   	1.500e+05	2.232e-04	8.817e-06	  -95.29°	  -94.52°
   26   	1.560e+05	6.655e-05	2.629e-06	   35.16°	   35.93°
   27   	1.620e+05	1.050e-04	4.146e-06	 -112.15°	 -111.38°
   28   	1.680e+05	1.303e-04	5.146e-06	  -11.15°	  -10.38°
   29   	1.740e+05	1.838e-04	7.262e-06	   94.29°	   95.06°
   30   	1.800e+05	7.339e-05	2.899e-06	  -39.92°	  -39.15°
Total Harmonic Distortion: 0.006537%(0.026892%)

.step freq=7000
N-Period=4
Fourier components of V(out)
DC component:-0.0261329

Harmonic	Frequency	 Fourier 	Normalized	 Phase  	Normalized
 Number 	  [Hz]   	Component	 Component	[degree]	Phase [deg]
    1   	7.000e+03	2.531e+01	1.000e+00	   -0.93°	    0.00°
    2   	1.400e+04	9.393e-04	3.711e-05	  160.41°	  161.34°
    3   	2.100e+04	1.604e-03	6.338e-05	  -91.10°	  -90.18°
    4   	2.800e+04	2.282e-04	9.014e-06	  151.54°	  152.46°
    5   	3.500e+04	3.793e-04	1.498e-05	  -97.23°	  -96.31°
    6   	4.200e+04	3.007e-04	1.188e-05	  154.72°	  155.65°
    7   	4.900e+04	1.539e-04	6.078e-06	 -168.42°	 -167.49°
    8   	5.600e+04	2.994e-04	1.183e-05	  164.35°	  165.28°
    9   	6.300e+04	1.733e-04	6.846e-06	 -157.51°	 -156.59°
   10   	7.000e+04	3.148e-04	1.244e-05	  168.19°	  169.12°
   11   	7.700e+04	2.576e-04	1.018e-05	 -106.26°	 -105.33°
   12   	8.400e+04	2.142e-04	8.461e-06	  157.60°	  158.53°
   13   	9.100e+04	3.350e-04	1.324e-05	  -90.82°	  -89.89°
   14   	9.800e+04	9.664e-05	3.818e-06	  100.99°	  101.92°
   15   	1.050e+05	1.450e-04	5.728e-06	  -97.21°	  -96.28°
   16   	1.120e+05	1.099e-04	4.343e-06	   37.45°	   38.38°
   17   	1.190e+05	2.206e-04	8.716e-06	  105.88°	  106.81°
   18   	1.260e+05	3.698e-05	1.461e-06	   51.34°	   52.26°
   19   	1.330e+05	4.205e-04	1.661e-05	   97.66°	   98.58°
   20   	1.400e+05	1.394e-04	5.507e-06	  164.46°	  165.38°
   21   	1.470e+05	2.719e-04	1.074e-05	   93.49°	   94.41°
   22   	1.540e+05	2.236e-04	8.834e-06	  157.03°	  157.96°
   23   	1.610e+05	7.703e-05	3.043e-06	  -98.73°	  -97.80°
   24   	1.680e+05	1.459e-04	5.763e-06	  134.42°	  135.35°
   25   	1.750e+05	2.737e-04	1.081e-05	 -101.47°	 -100.54°
   26   	1.820e+05	8.670e-05	3.425e-06	   27.36°	   28.28°
   27   	1.890e+05	1.286e-04	5.079e-06	 -122.23°	 -121.30°
   28   	1.960e+05	1.608e-04	6.353e-06	  -19.06°	  -18.13°
   29   	2.030e+05	2.295e-04	9.065e-06	   88.56°	   89.49°
   30   	2.100e+05	9.204e-05	3.636e-06	  -49.70°	  -48.78°
Total Harmonic Distortion: 0.008687%(0.033418%)

.step freq=8000
N-Period=4
Fourier components of V(out)
DC component:-0.0228919

Harmonic	Frequency	 Fourier 	Normalized	 Phase  	Normalized
 Number 	  [Hz]   	Component	 Component	[degree]	Phase [deg]
    1   	8.000e+03	2.531e+01	1.000e+00	   -1.08°	    0.00°
    2   	1.600e+04	1.058e-03	4.181e-05	  159.88°	  160.96°
    3   	2.400e+04	2.340e-03	9.245e-05	  -92.74°	  -91.66°
    4   	3.200e+04	2.611e-04	1.032e-05	  146.49°	  147.57°
    5   	4.000e+04	4.396e-04	1.737e-05	  -98.34°	  -97.25°
    6   	4.800e+04	3.386e-04	1.338e-05	  150.92°	  152.00°
    7   	5.600e+04	1.880e-04	7.428e-06	 -177.22°	 -176.14°
    8   	6.400e+04	3.415e-04	1.349e-05	  161.70°	  162.78°
    9   	7.200e+04	1.979e-04	7.819e-06	 -167.01°	 -165.93°
   10   	8.000e+04	3.682e-04	1.455e-05	  165.09°	  166.17°
   11   	8.800e+04	2.879e-04	1.137e-05	 -107.72°	 -106.63°
   12   	9.600e+04	2.533e-04	1.001e-05	  152.32°	  153.40°
   13   	1.040e+05	3.972e-04	1.569e-05	  -92.71°	  -91.63°
   14   	1.120e+05	1.203e-04	4.754e-06	   91.84°	   92.93°
   15   	1.200e+05	1.735e-04	6.853e-06	 -102.43°	 -101.35°
   16   	1.280e+05	1.390e-04	5.490e-06	   29.30°	   30.38°
   17   	1.360e+05	2.754e-04	1.088e-05	  103.48°	  104.56°
   18   	1.440e+05	4.236e-05	1.674e-06	   31.58°	   32.67°
   19   	1.520e+05	5.164e-04	2.040e-05	   93.25°	   94.34°
   20   	1.600e+05	1.618e-04	6.391e-06	  160.56°	  161.64°
   21   	1.680e+05	3.322e-04	1.313e-05	   87.32°	   88.41°
   22   	1.760e+05	2.602e-04	1.028e-05	  150.02°	  151.10°
   23   	1.840e+05	9.034e-05	3.569e-06	 -101.18°	 -100.10°
   24   	1.920e+05	1.663e-04	6.571e-06	  124.25°	  125.33°
   25   	2.000e+05	3.243e-04	1.281e-05	 -107.98°	 -106.90°
   26   	2.080e+05	1.095e-04	4.325e-06	   16.31°	   17.39°
   27   	2.160e+05	1.499e-04	5.920e-06	 -131.89°	 -130.81°
   28   	2.240e+05	1.915e-04	7.564e-06	  -28.58°	  -27.50°
   29   	2.320e+05	2.774e-04	1.096e-05	   81.90°	   82.98°
   30   	2.400e+05	1.072e-04	4.234e-06	  -60.87°	  -59.79°
Total Harmonic Distortion: 0.011529%(0.040435%)

.step freq=9000
N-Period=4
Fourier components of V(out)
DC component:-0.0203756

Harmonic	Frequency	 Fourier 	Normalized	 Phase  	Normalized
 Number 	  [Hz]   	Component	 Component	[degree]	Phase [deg]
    1   	9.000e+03	2.531e+01	1.000e+00	   -1.24°	    0.00°
    2   	1.800e+04	1.180e-03	4.661e-05	  159.11°	  160.35°
    3   	2.700e+04	3.295e-03	1.302e-04	  -94.18°	  -92.94°
    4   	3.600e+04	2.992e-04	1.182e-05	  141.60°	  142.84°
    5   	4.500e+04	5.074e-04	2.005e-05	  -99.57°	  -98.34°
    6   	5.400e+04	3.777e-04	1.492e-05	  146.91°	  148.15°
    7   	6.300e+04	2.290e-04	9.048e-06	  174.87°	  176.11°
    8   	7.200e+04	3.841e-04	1.518e-05	  158.93°	  160.17°
    9   	8.100e+04	2.273e-04	8.981e-06	 -176.76°	 -175.52°
   10   	9.000e+04	4.242e-04	1.676e-05	  161.95°	  163.19°
   11   	9.900e+04	3.152e-04	1.245e-05	 -109.53°	 -108.29°
   12   	1.080e+05	2.955e-04	1.167e-05	  147.18°	  148.41°
   13   	1.170e+05	4.596e-04	1.816e-05	  -94.81°	  -93.57°
   14   	1.260e+05	1.473e-04	5.819e-06	   83.91°	   85.15°
   15   	1.350e+05	2.004e-04	7.917e-06	 -107.23°	 -105.99°
   16   	1.440e+05	1.707e-04	6.742e-06	   22.22°	   23.46°
   17   	1.530e+05	3.353e-04	1.325e-05	  100.19°	  101.43°
   18   	1.620e+05	5.069e-05	2.003e-06	   14.86°	   16.10°
   19   	1.710e+05	6.177e-04	2.440e-05	   88.68°	   89.92°
   20   	1.800e+05	1.837e-04	7.256e-06	  156.25°	  157.49°
   21   	1.890e+05	3.955e-04	1.563e-05	   81.63°	   82.87°
   22   	1.980e+05	2.951e-04	1.166e-05	  143.25°	  144.49°
   23   	2.070e+05	1.020e-04	4.029e-06	 -105.61°	 -104.37°
   24   	2.160e+05	1.846e-04	7.292e-06	  114.86°	  116.10°
   25   	2.250e+05	3.718e-04	1.469e-05	 -114.34°	 -113.10°
   26   	2.340e+05	1.321e-04	5.219e-06	    5.90°	    7.14°
   27   	2.430e+05	1.671e-04	6.603e-06	 -139.81°	 -138.57°
   28   	2.520e+05	2.214e-04	8.748e-06	  -37.39°	  -36.15°
   29   	2.610e+05	3.228e-04	1.275e-05	   74.40°	   75.64°
   30   	2.700e+05	1.216e-04	4.804e-06	  -70.03°	  -68.79°
Total Harmonic Distortion: 0.015215%(0.047411%)

.step freq=10000
N-Period=4
Fourier components of V(out)
DC component:-0.0183614

Harmonic	Frequency	 Fourier 	Normalized	 Phase  	Normalized
 Number 	  [Hz]   	Component	 Component	[degree]	Phase [deg]
    1   	1.000e+04	2.531e+01	1.000e+00	   -1.39°	    0.00°
    2   	2.000e+04	1.300e-03	5.136e-05	  157.99°	  159.38°
    3   	3.000e+04	4.510e-03	1.782e-04	  -95.56°	  -94.17°
    4   	4.000e+04	3.376e-04	1.334e-05	  136.85°	  138.24°
    5   	5.000e+04	5.807e-04	2.294e-05	 -101.26°	  -99.87°
    6   	6.000e+04	4.166e-04	1.646e-05	  143.40°	  144.79°
    7   	7.000e+04	2.735e-04	1.081e-05	  166.65°	  168.04°
    8   	8.000e+04	4.320e-04	1.707e-05	  156.38°	  157.77°
    9   	9.000e+04	2.562e-04	1.012e-05	  173.86°	  175.25°
   10   	1.000e+05	4.868e-04	1.923e-05	  158.32°	  159.71°
   11   	1.100e+05	3.445e-04	1.361e-05	 -111.07°	 -109.68°
   12   	1.200e+05	3.402e-04	1.344e-05	  141.15°	  142.54°
   13   	1.300e+05	5.256e-04	2.077e-05	  -97.59°	  -96.20°
   14   	1.400e+05	1.773e-04	7.004e-06	   74.94°	   76.33°
   15   	1.500e+05	2.233e-04	8.824e-06	 -113.22°	 -111.82°
   16   	1.600e+05	2.039e-04	8.057e-06	   14.21°	   15.61°
   17   	1.700e+05	4.060e-04	1.604e-05	   95.90°	   97.29°
   18   	1.800e+05	5.646e-05	2.231e-06	   -2.00°	   -0.60°
   19   	1.900e+05	7.255e-04	2.867e-05	   83.48°	   84.87°
   20   	2.000e+05	2.100e-04	8.298e-06	  151.47°	  152.87°
   21   	2.100e+05	4.573e-04	1.807e-05	   75.64°	   77.03°
   22   	2.200e+05	3.303e-04	1.305e-05	  135.69°	  137.08°
   23   	2.300e+05	1.174e-04	4.640e-06	 -111.77°	 -110.37°
   24   	2.400e+05	1.997e-04	7.891e-06	  104.21°	  105.60°
   25   	2.500e+05	4.180e-04	1.651e-05	 -121.23°	 -119.84°
   26   	2.600e+05	1.575e-04	6.222e-06	   -5.80°	   -4.41°
   27   	2.700e+05	1.783e-04	7.044e-06	 -147.83°	 -146.44°
   28   	2.800e+05	2.512e-04	9.924e-06	  -47.23°	  -45.83°
   29   	2.900e+05	3.690e-04	1.458e-05	   65.89°	   67.28°
   30   	3.000e+05	1.338e-04	5.287e-06	  -80.47°	  -79.08°
Total Harmonic Distortion: 0.019915%(0.055004%)

.step freq=11000
N-Period=4
Fourier components of V(out)
DC component:-0.0167132

Harmonic	Frequency	 Fourier 	Normalized	 Phase  	Normalized
 Number 	  [Hz]   	Component	 Component	[degree]	Phase [deg]
    1   	1.100e+04	2.531e+01	1.000e+00	   -1.55°	    0.00°
    2   	2.200e+04	1.422e-03	5.618e-05	  156.75°	  158.30°
    3   	3.300e+04	6.028e-03	2.382e-04	  -96.79°	  -95.24°
    4   	4.400e+04	3.831e-04	1.514e-05	  132.14°	  133.68°
    5   	5.500e+04	6.721e-04	2.656e-05	 -102.86°	 -101.31°
    6   	6.600e+04	4.579e-04	1.809e-05	  139.38°	  140.93°
    7   	7.700e+04	3.274e-04	1.294e-05	  159.82°	  161.37°
    8   	8.800e+04	4.799e-04	1.896e-05	  153.45°	  155.00°
    9   	9.900e+04	2.947e-04	1.164e-05	  164.33°	  165.88°
   10   	1.100e+05	5.505e-04	2.175e-05	  154.71°	  156.26°
   11   	1.210e+05	3.672e-04	1.451e-05	 -113.08°	 -111.53°
   12   	1.320e+05	3.861e-04	1.526e-05	  135.60°	  137.14°
   13   	1.430e+05	5.886e-04	2.326e-05	 -100.08°	  -98.53°
   14   	1.540e+05	2.090e-04	8.257e-06	   67.23°	   68.78°
   15   	1.650e+05	2.433e-04	9.612e-06	 -117.77°	 -116.22°
   16   	1.760e+05	2.387e-04	9.430e-06	    7.50°	    9.05°
   17   	1.870e+05	4.781e-04	1.889e-05	   91.14°	   92.68°
   18   	1.980e+05	6.534e-05	2.582e-06	  -13.33°	  -11.78°
   19   	2.090e+05	8.362e-04	3.304e-05	   78.40°	   79.95°
   20   	2.200e+05	2.326e-04	9.192e-06	  145.78°	  147.33°
   21   	2.310e+05	5.229e-04	2.066e-05	   70.19°	   71.74°
   22   	2.420e+05	3.584e-04	1.416e-05	  128.56°	  130.11°
   23   	2.530e+05	1.275e-04	5.036e-06	 -118.39°	 -116.84°
   24   	2.640e+05	2.072e-04	8.187e-06	   95.10°	   96.65°
   25   	2.750e+05	4.589e-04	1.813e-05	 -127.35°	 -125.81°
   26   	2.860e+05	1.774e-04	7.008e-06	  -17.23°	  -15.68°
   27   	2.970e+05	1.865e-04	7.369e-06	 -153.01°	 -151.46°
   28   	3.080e+05	2.740e-04	1.083e-05	  -55.82°	  -54.27°
   29   	3.190e+05	4.065e-04	1.606e-05	   57.37°	   58.92°
   30   	3.300e+05	1.408e-04	5.564e-06	  -86.83°	  -85.28°
Total Harmonic Distortion: 0.025808%(0.063258%)

.step freq=12000
N-Period=4
Fourier components of V(out)
DC component:-0.0153343

Harmonic	Frequency	 Fourier 	Normalized	 Phase  	Normalized
 Number 	  [Hz]   	Component	 Component	[degree]	Phase [deg]
    1   	1.200e+04	2.531e+01	1.000e+00	   -1.71°	    0.00°
    2   	2.400e+04	1.543e-03	6.097e-05	  155.21°	  156.91°
    3   	3.600e+04	7.900e-03	3.122e-04	  -97.97°	  -96.27°
    4   	4.800e+04	4.304e-04	1.701e-05	  127.50°	  129.20°
    5   	6.000e+04	7.833e-04	3.095e-05	 -104.69°	 -102.98°
    6   	7.200e+04	4.985e-04	1.970e-05	  135.71°	  137.41°
    7   	8.400e+04	3.882e-04	1.534e-05	  153.40°	  155.11°
    8   	9.600e+04	5.324e-04	2.104e-05	  150.65°	  152.35°
    9   	1.080e+05	3.397e-04	1.342e-05	  155.09°	  156.79°
   10   	1.200e+05	6.205e-04	2.452e-05	  150.67°	  152.38°
   11   	1.320e+05	3.855e-04	1.523e-05	 -115.14°	 -113.44°
   12   	1.440e+05	4.357e-04	1.722e-05	  129.23°	  130.93°
   13   	1.560e+05	6.498e-04	2.568e-05	 -102.48°	 -100.77°
   14   	1.680e+05	2.457e-04	9.708e-06	   58.78°	   60.48°
   15   	1.800e+05	2.593e-04	1.024e-05	 -121.36°	 -119.65°
   16   	1.920e+05	2.761e-04	1.091e-05	   -0.26°	    1.44°
   17   	2.040e+05	5.516e-04	2.180e-05	   85.98°	   87.68°
   18   	2.160e+05	7.293e-05	2.882e-06	  -28.97°	  -27.26°
   19   	2.280e+05	9.488e-04	3.749e-05	   73.41°	   75.11°
   20   	2.400e+05	2.599e-04	1.027e-05	  140.41°	  142.12°
   21   	2.520e+05	5.930e-04	2.343e-05	   65.22°	   66.92°
   22   	2.640e+05	3.895e-04	1.539e-05	  120.74°	  122.44°
   23   	2.760e+05	1.290e-04	5.098e-06	 -125.33°	 -123.63°
   24   	2.880e+05	2.163e-04	8.546e-06	   83.79°	   85.49°
   25   	3.000e+05	4.923e-04	1.945e-05	 -132.44°	 -130.74°
   26   	3.120e+05	2.063e-04	8.152e-06	  -29.00°	  -27.30°
   27   	3.240e+05	1.931e-04	7.631e-06	 -153.89°	 -152.18°
   28   	3.360e+05	3.039e-04	1.201e-05	  -65.93°	  -64.22°
   29   	3.480e+05	4.290e-04	1.695e-05	   48.67°	   50.38°
   30   	3.600e+05	1.524e-04	6.022e-06	  -97.42°	  -95.72°
Total Harmonic Distortion: 0.033107%(0.072087%)

.step freq=13000
N-Period=4
Fourier components of V(out)
DC component:-0.0141671

Harmonic	Frequency	 Fourier 	Normalized	 Phase  	Normalized
 Number 	  [Hz]   	Component	 Component	[degree]	Phase [deg]
    1   	1.300e+04	2.531e+01	1.000e+00	   -1.86°	    0.00°
    2   	2.600e+04	1.667e-03	6.589e-05	  153.68°	  155.55°
    3   	3.900e+04	1.018e-02	4.025e-04	  -99.15°	  -97.29°
    4   	5.200e+04	4.908e-04	1.939e-05	  122.89°	  124.76°
    5   	6.500e+04	9.194e-04	3.633e-05	 -106.81°	 -104.94°
    6   	7.800e+04	5.456e-04	2.156e-05	  130.96°	  132.82°
    7   	9.100e+04	4.545e-04	1.796e-05	  146.98°	  148.84°
    8   	1.040e+05	5.822e-04	2.301e-05	  147.14°	  149.00°
    9   	1.170e+05	3.900e-04	1.541e-05	  146.32°	  148.18°
   10   	1.300e+05	6.876e-04	2.717e-05	  146.95°	  148.82°
   11   	1.430e+05	4.023e-04	1.590e-05	 -117.41°	 -115.55°
   12   	1.560e+05	4.844e-04	1.914e-05	  124.01°	  125.88°
   13   	1.690e+05	7.097e-04	2.805e-05	 -104.97°	 -103.10°
   14   	1.820e+05	2.826e-04	1.117e-05	   52.12°	   53.99°
   15   	1.950e+05	2.689e-04	1.063e-05	 -123.72°	 -121.86°
   16   	2.080e+05	3.166e-04	1.251e-05	   -5.88°	   -4.01°
   17   	2.210e+05	6.280e-04	2.482e-05	   80.02°	   81.88°
   18   	2.340e+05	8.753e-05	3.459e-06	  -35.67°	  -33.81°
   19   	2.470e+05	1.065e-03	4.207e-05	   68.30°	   70.17°
   20   	2.600e+05	2.767e-04	1.094e-05	  134.80°	  136.66°
   21   	2.730e+05	6.665e-04	2.634e-05	   60.76°	   62.62°
   22   	2.860e+05	4.100e-04	1.620e-05	  114.45°	  116.32°
   23   	2.990e+05	1.282e-04	5.065e-06	 -134.32°	 -132.46°
   24   	3.120e+05	2.165e-04	8.556e-06	   75.55°	   77.41°
   25   	3.250e+05	5.254e-04	2.076e-05	 -136.64°	 -134.78°
   26   	3.380e+05	2.279e-04	9.007e-06	  -39.33°	  -37.47°
   27   	3.510e+05	2.018e-04	7.975e-06	 -149.71°	 -147.84°
   28   	3.640e+05	3.283e-04	1.297e-05	  -73.59°	  -71.72°
   29   	3.770e+05	4.454e-04	1.760e-05	   38.94°	   40.80°
   30   	3.900e+05	1.631e-04	6.444e-06	 -102.81°	 -100.94°
Total Harmonic Distortion: 0.042046%(0.082478%)

.step freq=14000
N-Period=4
Fourier components of V(out)
DC component:-0.0131603

Harmonic	Frequency	 Fourier 	Normalized	 Phase  	Normalized
 Number 	  [Hz]   	Component	 Component	[degree]	Phase [deg]
    1   	1.400e+04	2.530e+01	1.000e+00	   -2.03°	    0.00°
    2   	2.800e+04	1.791e-03	7.079e-05	  151.89°	  153.91°
    3   	4.200e+04	1.295e-02	5.119e-04	 -100.29°	  -98.26°
    4   	5.600e+04	5.564e-04	2.199e-05	  118.26°	  120.28°
    5   	7.000e+04	1.097e-03	4.337e-05	 -109.07°	 -107.05°
    6   	8.400e+04	5.944e-04	2.349e-05	  126.29°	  128.31°
    7   	9.800e+04	5.300e-04	2.095e-05	  141.19°	  143.21°
    8   	1.120e+05	6.361e-04	2.514e-05	  143.58°	  145.61°
    9   	1.260e+05	4.482e-04	1.772e-05	  137.75°	  139.78°
   10   	1.400e+05	7.596e-04	3.002e-05	  142.87°	  144.90°
   11   	1.540e+05	4.136e-04	1.634e-05	 -119.37°	 -117.34°
   12   	1.680e+05	5.349e-04	2.114e-05	  118.21°	  120.24°
   13   	1.820e+05	7.675e-04	3.033e-05	 -107.36°	 -105.33°
   14   	1.960e+05	3.228e-04	1.276e-05	   44.85°	   46.88°
   15   	2.100e+05	2.726e-04	1.077e-05	 -125.69°	 -123.66°
   16   	2.240e+05	3.581e-04	1.415e-05	  -12.22°	  -10.19°
   17   	2.380e+05	7.087e-04	2.801e-05	   73.81°	   75.84°
   18   	2.520e+05	1.003e-04	3.966e-06	  -43.56°	  -41.53°
   19   	2.660e+05	1.180e-03	4.663e-05	   62.91°	   64.93°
   20   	2.800e+05	2.933e-04	1.159e-05	  128.60°	  130.62°
   21   	2.940e+05	7.370e-04	2.913e-05	   55.77°	   57.80°
   22   	3.080e+05	4.235e-04	1.674e-05	  107.58°	  109.61°
   23   	3.220e+05	1.261e-04	4.985e-06	 -142.56°	 -140.54°
   24   	3.360e+05	2.073e-04	8.191e-06	   66.30°	   68.32°
   25   	3.500e+05	5.532e-04	2.186e-05	 -140.88°	 -138.85°
   26   	3.640e+05	2.475e-04	9.781e-06	  -51.18°	  -49.16°
   27   	3.780e+05	2.161e-04	8.540e-06	 -146.01°	 -143.99°
   28   	3.920e+05	3.465e-04	1.369e-05	  -81.95°	  -79.92°
   29   	4.060e+05	4.522e-04	1.787e-05	   29.41°	   31.44°
   30   	4.200e+05	1.696e-04	6.704e-06	 -107.37°	 -105.34°
Total Harmonic Distortion: 0.052902%(0.094173%)

.step freq=15000
N-Period=4
Fourier components of V(out)
DC component:-0.0122758

Harmonic	Frequency	 Fourier 	Normalized	 Phase  	Normalized
 Number 	  [Hz]   	Component	 Component	[degree]	Phase [deg]
    1   	1.500e+04	2.530e+01	1.000e+00	   -2.19°	    0.00°
    2   	3.000e+04	1.913e-03	7.560e-05	  149.68°	  151.87°
    3   	4.500e+04	1.628e-02	6.436e-04	 -101.47°	  -99.28°
    4   	6.000e+04	6.240e-04	2.466e-05	  113.54°	  115.73°
    5   	7.500e+04	1.325e-03	5.239e-05	 -111.79°	 -109.60°
    6   	9.000e+04	6.432e-04	2.542e-05	  121.98°	  124.17°
    7   	1.050e+05	6.103e-04	2.412e-05	  135.30°	  137.49°
    8   	1.200e+05	6.966e-04	2.753e-05	  139.97°	  142.16°
    9   	1.350e+05	5.077e-04	2.007e-05	  129.25°	  131.44°
   10   	1.500e+05	8.373e-04	3.309e-05	  138.16°	  140.35°
   11   	1.650e+05	4.221e-04	1.668e-05	 -120.98°	 -118.79°
   12   	1.800e+05	5.866e-04	2.318e-05	  111.48°	  113.67°
   13   	1.950e+05	8.221e-04	3.249e-05	 -109.99°	 -107.80°
   14   	2.100e+05	3.659e-04	1.446e-05	   36.47°	   38.66°
   15   	2.250e+05	2.701e-04	1.067e-05	 -127.77°	 -125.58°
   16   	2.400e+05	4.009e-04	1.584e-05	  -19.80°	  -17.61°
   17   	2.550e+05	7.939e-04	3.138e-05	   67.37°	   69.56°
   18   	2.700e+05	1.116e-04	4.411e-06	  -54.78°	  -52.59°
   19   	2.850e+05	1.296e-03	5.122e-05	   57.11°	   59.30°
   20   	3.000e+05	3.132e-04	1.238e-05	  122.41°	  124.60°
   21   	3.150e+05	8.070e-04	3.189e-05	   50.08°	   52.27°
   22   	3.300e+05	4.370e-04	1.727e-05	   99.99°	  102.18°
   23   	3.450e+05	1.228e-04	4.853e-06	 -148.34°	 -146.15°
   24   	3.600e+05	1.959e-04	7.742e-06	   54.42°	   56.61°
   25   	3.750e+05	5.837e-04	2.307e-05	 -145.05°	 -142.86°
   26   	3.900e+05	2.760e-04	1.091e-05	  -64.05°	  -61.86°
   27   	4.050e+05	2.436e-04	9.627e-06	 -144.11°	 -141.92°
   28   	4.200e+05	3.683e-04	1.456e-05	  -92.11°	  -89.92°
   29   	4.350e+05	4.508e-04	1.782e-05	   20.07°	   22.26°
   30   	4.500e+05	1.730e-04	6.837e-06	 -115.58°	 -113.39°
Total Harmonic Distortion: 0.066006%(0.107702%)

.step freq=16000
N-Period=4
Fourier components of V(out)
DC component:-0.0114978

Harmonic	Frequency	 Fourier 	Normalized	 Phase  	Normalized
 Number 	  [Hz]   	Component	 Component	[degree]	Phase [deg]
    1   	1.600e+04	2.530e+01	1.000e+00	   -2.36°	    0.00°
    2   	3.200e+04	2.042e-03	8.071e-05	  147.45°	  149.81°
    3   	4.800e+04	2.027e-02	8.014e-04	 -102.63°	 -100.27°
    4   	6.400e+04	7.109e-04	2.810e-05	  108.93°	  111.29°
    5   	8.000e+04	1.633e-03	6.456e-05	 -114.52°	 -112.16°
    6   	9.600e+04	7.007e-04	2.770e-05	  116.60°	  118.95°
    7   	1.120e+05	7.038e-04	2.782e-05	  130.40°	  132.76°
    8   	1.280e+05	7.520e-04	2.972e-05	  135.73°	  138.09°
    9   	1.440e+05	5.867e-04	2.319e-05	  121.14°	  123.50°
   10   	1.600e+05	9.114e-04	3.603e-05	  133.66°	  136.02°
   11   	1.760e+05	4.172e-04	1.649e-05	 -122.63°	 -120.28°
   12   	1.920e+05	6.386e-04	2.524e-05	  105.41°	  107.77°
   13   	2.080e+05	8.731e-04	3.451e-05	 -111.70°	 -109.34°
   14   	2.240e+05	4.106e-04	1.623e-05	   29.15°	   31.51°
   15   	2.400e+05	2.697e-04	1.066e-05	 -124.88°	 -122.52°
   16   	2.560e+05	4.475e-04	1.769e-05	  -26.43°	  -24.08°
   17   	2.720e+05	8.693e-04	3.436e-05	   60.50°	   62.86°
   18   	2.880e+05	1.297e-04	5.126e-06	  -62.49°	  -60.13°
   19   	3.040e+05	1.409e-03	5.571e-05	   51.77°	   54.13°
   20   	3.200e+05	3.228e-04	1.276e-05	  116.44°	  118.80°
   21   	3.360e+05	8.874e-04	3.508e-05	   45.55°	   47.91°
   22   	3.520e+05	4.396e-04	1.738e-05	   93.41°	   95.76°
   23   	3.680e+05	1.065e-04	4.208e-06	 -155.68°	 -153.32°
   24   	3.840e+05	1.739e-04	6.874e-06	   44.32°	   46.67°
   25   	4.000e+05	6.178e-04	2.442e-05	 -146.86°	 -144.50°
   26   	4.160e+05	2.979e-04	1.178e-05	  -77.04°	  -74.68°
   27   	4.320e+05	3.061e-04	1.210e-05	 -139.10°	 -136.74°
   28   	4.480e+05	3.851e-04	1.522e-05	 -101.40°	  -99.04°
   29   	4.640e+05	4.253e-04	1.681e-05	   10.18°	   12.54°
   30   	4.800e+05	1.786e-04	7.060e-06	 -120.23°	 -117.88°
Total Harmonic Distortion: 0.081751%(0.123432%)

.step freq=17000
N-Period=4
Fourier components of V(out)
DC component:-0.0107952

Harmonic	Frequency	 Fourier 	Normalized	 Phase  	Normalized
 Number 	  [Hz]   	Component	 Component	[degree]	Phase [deg]
    1   	1.700e+04	2.530e+01	1.000e+00	   -2.53°	    0.00°
    2   	3.400e+04	2.165e-03	8.559e-05	  144.66°	  147.19°
    3   	5.100e+04	2.505e-02	9.901e-04	 -103.84°	 -101.31°
    4   	6.800e+04	8.001e-04	3.163e-05	  103.85°	  106.38°
    5   	8.500e+04	2.034e-03	8.040e-05	 -117.62°	 -115.10°
    6   	1.020e+05	7.578e-04	2.996e-05	  111.60°	  114.13°
    7   	1.190e+05	8.043e-04	3.179e-05	  125.28°	  127.80°
    8   	1.360e+05	8.183e-04	3.235e-05	  131.62°	  134.15°
    9   	1.530e+05	6.647e-04	2.628e-05	  112.94°	  115.47°
   10   	1.700e+05	9.966e-04	3.940e-05	  128.58°	  131.11°
   11   	1.870e+05	4.151e-04	1.641e-05	 -123.19°	 -120.66°
   12   	2.040e+05	6.941e-04	2.744e-05	   98.25°	  100.78°
   13   	2.210e+05	9.238e-04	3.652e-05	 -113.82°	 -111.29°
   14   	2.380e+05	4.631e-04	1.831e-05	   20.41°	   22.94°
   15   	2.550e+05	2.618e-04	1.035e-05	 -122.12°	 -119.59°
   16   	2.720e+05	4.996e-04	1.975e-05	  -34.43°	  -31.90°
   17   	2.890e+05	9.547e-04	3.774e-05	   53.24°	   55.77°
   18   	3.060e+05	1.473e-04	5.824e-06	  -74.47°	  -71.94°
   19   	3.230e+05	1.518e-03	6.001e-05	   45.72°	   48.25°
   20   	3.400e+05	3.388e-04	1.339e-05	  111.17°	  113.70°
   21   	3.570e+05	9.530e-04	3.768e-05	   39.99°	   42.52°
   22   	3.740e+05	4.422e-04	1.748e-05	   86.54°	   89.07°
   23   	3.910e+05	9.943e-05	3.931e-06	 -160.90°	 -158.37°
   24   	4.080e+05	1.502e-04	5.938e-06	   30.20°	   32.73°
   25   	4.250e+05	6.528e-04	2.581e-05	 -149.89°	 -147.36°
   26   	4.420e+05	3.313e-04	1.310e-05	  -89.90°	  -87.37°
   27   	4.590e+05	3.692e-04	1.459e-05	 -139.42°	 -136.89°
   28   	4.760e+05	4.062e-04	1.606e-05	 -111.63°	 -109.10°
   29   	4.930e+05	3.953e-04	1.563e-05	    0.21°	    2.74°
   30   	5.100e+05	1.825e-04	7.215e-06	 -128.71°	 -126.18°
Total Harmonic Distortion: 0.100603%(0.142117%)

.step freq=18000
N-Period=4
Fourier components of V(out)
DC component:-0.0101604

Harmonic	Frequency	 Fourier 	Normalized	 Phase  	Normalized
 Number 	  [Hz]   	Component	 Component	[degree]	Phase [deg]
    1   	1.800e+04	2.529e+01	1.000e+00	   -2.71°	    0.00°
    2   	3.600e+04	2.298e-03	9.087e-05	  141.73°	  144.43°
    3   	5.400e+04	3.074e-02	1.215e-03	 -105.10°	 -102.39°
    4   	7.200e+04	9.110e-04	3.602e-05	   98.93°	  101.63°
    5   	9.000e+04	2.568e-03	1.015e-04	 -120.96°	 -118.26°
    6   	1.080e+05	8.274e-04	3.271e-05	  105.69°	  108.40°
    7   	1.260e+05	9.164e-04	3.623e-05	  120.69°	  123.40°
    8   	1.440e+05	8.804e-04	3.481e-05	  126.64°	  129.34°
    9   	1.620e+05	7.543e-04	2.982e-05	  104.69°	  107.40°
   10   	1.800e+05	1.074e-03	4.248e-05	  123.42°	  126.13°
   11   	1.980e+05	4.060e-04	1.605e-05	 -122.70°	 -119.99°
   12   	2.160e+05	7.460e-04	2.949e-05	   91.53°	   94.23°
   13   	2.340e+05	9.760e-04	3.859e-05	 -115.42°	 -112.72°
   14   	2.520e+05	5.140e-04	2.032e-05	   12.43°	   15.14°
   15   	2.700e+05	2.667e-04	1.054e-05	 -115.64°	 -112.93°
   16   	2.880e+05	5.533e-04	2.187e-05	  -41.96°	  -39.25°
   17   	3.060e+05	1.034e-03	4.089e-05	   45.79°	   48.49°
   18   	3.240e+05	1.721e-04	6.806e-06	  -84.23°	  -81.52°
   19   	3.420e+05	1.626e-03	6.430e-05	   39.86°	   42.56°
   20   	3.600e+05	3.465e-04	1.370e-05	  106.21°	  108.92°
   21   	3.780e+05	1.027e-03	4.059e-05	   34.72°	   37.43°
   22   	3.960e+05	4.378e-04	1.731e-05	   80.37°	   83.07°
   23   	4.140e+05	8.832e-05	3.492e-06	 -163.04°	 -160.33°
   24   	4.320e+05	1.189e-04	4.702e-06	   14.75°	   17.46°
   25   	4.500e+05	7.065e-04	2.793e-05	 -152.06°	 -149.35°
   26   	4.680e+05	3.648e-04	1.442e-05	 -103.75°	 -101.05°
   27   	4.860e+05	4.642e-04	1.835e-05	 -141.68°	 -138.97°
   28   	5.040e+05	4.242e-04	1.677e-05	 -122.94°	 -120.24°
   29   	5.220e+05	3.508e-04	1.387e-05	   -9.84°	   -7.13°
   30   	5.400e+05	1.800e-04	7.118e-06	 -136.74°	 -134.04°
Total Harmonic Distortion: 0.123146%(0.164173%)

.step freq=19000
N-Period=4
Fourier components of V(out)
DC component:-0.00957353

Harmonic	Frequency	 Fourier 	Normalized	 Phase  	Normalized
 Number 	  [Hz]   	Component	 Component	[degree]	Phase [deg]
    1   	1.900e+04	2.529e+01	1.000e+00	   -2.89°	    0.00°
    2   	3.800e+04	2.438e-03	9.639e-05	  138.33°	  141.22°
    3   	5.700e+04	3.753e-02	1.484e-03	 -106.39°	 -103.51°
    4   	7.600e+04	1.037e-03	4.102e-05	   93.66°	   96.55°
    5   	9.500e+04	3.294e-03	1.302e-04	 -124.42°	 -121.53°
    6   	1.140e+05	9.013e-04	3.564e-05	   99.38°	  102.27°
    7   	1.330e+05	1.045e-03	4.130e-05	  117.27°	  120.15°
    8   	1.520e+05	9.451e-04	3.737e-05	  121.48°	  124.37°
    9   	1.710e+05	8.599e-04	3.400e-05	   96.57°	   99.45°
   10   	1.900e+05	1.158e-03	4.578e-05	  117.97°	  120.86°
   11   	2.090e+05	3.880e-04	1.534e-05	 -120.24°	 -117.36°
   12   	2.280e+05	8.007e-04	3.166e-05	   84.15°	   87.04°
   13   	2.470e+05	1.027e-03	4.061e-05	 -116.58°	 -113.69°
   14   	2.660e+05	5.722e-04	2.263e-05	    3.65°	    6.53°
   15   	2.850e+05	2.855e-04	1.129e-05	 -107.72°	 -104.83°
   16   	3.040e+05	6.118e-04	2.419e-05	  -50.30°	  -47.41°
   17   	3.230e+05	1.107e-03	4.377e-05	   38.04°	   40.92°
   18   	3.420e+05	1.992e-04	7.879e-06	  -95.85°	  -92.97°
   19   	3.610e+05	1.719e-03	6.797e-05	   33.79°	   36.67°
   20   	3.800e+05	3.557e-04	1.407e-05	  102.05°	  104.94°
   21   	3.990e+05	1.092e-03	4.316e-05	   29.36°	   32.24°
   22   	4.180e+05	4.276e-04	1.691e-05	   74.84°	   77.73°
   23   	4.370e+05	7.223e-05	2.856e-06	 -162.01°	 -159.12°
   24   	4.560e+05	8.150e-05	3.223e-06	   -6.78°	   -3.89°
   25   	4.750e+05	7.612e-04	3.010e-05	 -154.23°	 -151.35°
   26   	4.940e+05	3.955e-04	1.564e-05	 -117.45°	 -114.56°
   27   	5.130e+05	5.735e-04	2.268e-05	 -146.25°	 -143.36°
   28   	5.320e+05	4.351e-04	1.721e-05	 -133.74°	 -130.86°
   29   	5.510e+05	2.790e-04	1.103e-05	  -18.82°	  -15.93°
   30   	5.700e+05	1.798e-04	7.111e-06	 -144.26°	 -141.37°
Total Harmonic Distortion: 0.150104%(0.190084%)

.step freq=20000
N-Period=4
Fourier components of V(out)
DC component:-0.00902233

Harmonic	Frequency	 Fourier 	Normalized	 Phase  	Normalized
 Number 	  [Hz]   	Component	 Component	[degree]	Phase [deg]
    1   	2.000e+04	2.529e+01	1.000e+00	   -3.08°	    0.00°
    2   	4.000e+04	2.586e-03	1.023e-04	  134.44°	  137.51°
    3   	6.000e+04	4.564e-02	1.805e-03	 -107.77°	 -104.69°
    4   	8.000e+04	1.186e-03	4.689e-05	   88.38°	   91.45°
    5   	1.000e+05	4.256e-03	1.683e-04	 -128.12°	 -125.04°
    6   	1.200e+05	9.914e-04	3.921e-05	   92.80°	   95.88°
    7   	1.400e+05	1.191e-03	4.711e-05	  114.42°	  117.49°
    8   	1.600e+05	1.013e-03	4.006e-05	  115.46°	  118.53°
    9   	1.800e+05	9.742e-04	3.853e-05	   88.81°	   91.89°
   10   	2.000e+05	1.233e-03	4.878e-05	  111.98°	  115.05°
   11   	2.200e+05	3.780e-04	1.495e-05	 -116.32°	 -113.24°
   12   	2.400e+05	8.457e-04	3.345e-05	   76.59°	   79.66°
   13   	2.600e+05	1.083e-03	4.282e-05	 -117.54°	 -114.47°
   14   	2.800e+05	6.243e-04	2.469e-05	   -5.37°	   -2.30°
   15   	3.000e+05	3.249e-04	1.285e-05	  -99.38°	  -96.30°
   16   	3.200e+05	6.673e-04	2.639e-05	  -58.84°	  -55.76°
   17   	3.400e+05	1.179e-03	4.662e-05	   29.92°	   33.00°
   18   	3.600e+05	2.284e-04	9.033e-06	 -107.14°	 -104.07°
   19   	3.800e+05	1.804e-03	7.134e-05	   27.65°	   30.72°
   20   	4.000e+05	3.637e-04	1.439e-05	   98.28°	  101.35°
   21   	4.200e+05	1.148e-03	4.540e-05	   23.94°	   27.02°
   22   	4.400e+05	4.136e-04	1.636e-05	   69.95°	   73.03°
   23   	4.600e+05	6.838e-05	2.705e-06	 -156.35°	 -153.27°
   24   	4.800e+05	5.035e-05	1.991e-06	  -52.77°	  -49.69°
   25   	5.000e+05	8.302e-04	3.283e-05	 -157.10°	 -154.02°
   26   	5.200e+05	4.332e-04	1.713e-05	 -131.95°	 -128.87°
   27   	5.400e+05	6.872e-04	2.718e-05	 -152.18°	 -149.10°
   28   	5.600e+05	4.430e-04	1.752e-05	 -146.51°	 -143.43°
   29   	5.800e+05	2.033e-04	8.041e-06	  -26.32°	  -23.24°
   30   	6.000e+05	1.638e-04	6.478e-06	 -153.78°	 -150.70°
Total Harmonic Distortion: 0.182368%(0.221354%)

.step freq=21000
N-Period=4
Fourier components of V(out)
DC component:-0.00849506

Harmonic	Frequency	 Fourier 	Normalized	 Phase  	Normalized
 Number 	  [Hz]   	Component	 Component	[degree]	Phase [deg]
    1   	2.100e+04	2.528e+01	1.000e+00	   -3.27°	    0.00°
    2   	4.200e+04	2.744e-03	1.086e-04	  129.84°	  133.11°
    3   	6.300e+04	5.537e-02	2.190e-03	 -109.24°	 -105.97°
    4   	8.400e+04	1.361e-03	5.383e-05	   82.46°	   85.73°
    5   	1.050e+05	5.563e-03	2.201e-04	 -132.06°	 -128.79°
    6   	1.260e+05	1.092e-03	4.321e-05	   85.59°	   88.86°
    7   	1.470e+05	1.370e-03	5.419e-05	  112.89°	  116.16°
    8   	1.680e+05	1.082e-03	4.278e-05	  109.25°	  112.52°
    9   	1.890e+05	1.111e-03	4.393e-05	   80.94°	   84.21°
   10   	2.100e+05	1.313e-03	5.195e-05	  105.93°	  109.20°
   11   	2.310e+05	3.708e-04	1.467e-05	 -108.98°	 -105.71°
   12   	2.520e+05	8.943e-04	3.538e-05	   68.71°	   71.99°
   13   	2.730e+05	1.150e-03	4.547e-05	 -118.11°	 -114.84°
   14   	2.940e+05	6.887e-04	2.724e-05	  -14.78°	  -11.51°
   15   	3.150e+05	3.999e-04	1.582e-05	  -94.36°	  -91.09°
   16   	3.360e+05	7.348e-04	2.907e-05	  -67.96°	  -64.69°
   17   	3.570e+05	1.235e-03	4.886e-05	   21.60°	   24.87°
   18   	3.780e+05	2.681e-04	1.060e-05	 -120.39°	 -117.12°
   19   	3.990e+05	1.879e-03	7.434e-05	   21.65°	   24.93°
   20   	4.200e+05	3.851e-04	1.523e-05	   96.12°	   99.40°
   21   	4.410e+05	1.212e-03	4.794e-05	   18.88°	   22.15°
   22   	4.620e+05	4.079e-04	1.614e-05	   66.47°	   69.74°
   23   	4.830e+05	5.987e-05	2.368e-06	 -146.21°	 -142.94°
   24   	5.040e+05	5.923e-05	2.343e-06	 -117.83°	 -114.56°
   25   	5.250e+05	9.188e-04	3.634e-05	 -160.07°	 -156.80°
   26   	5.460e+05	4.734e-04	1.872e-05	 -145.69°	 -142.42°
   27   	5.670e+05	8.330e-04	3.295e-05	 -159.16°	 -155.88°
   28   	5.880e+05	4.482e-04	1.773e-05	 -159.12°	 -155.85°
   29   	6.090e+05	1.038e-04	4.106e-06	  -28.61°	  -25.33°
   30   	6.300e+05	1.443e-04	5.707e-06	 -163.01°	 -159.74°
Total Harmonic Distortion: 0.221146%(0.258648%)

.step freq=22000
N-Period=4
Fourier components of V(out)
DC component:-0.00797535

Harmonic	Frequency	 Fourier 	Normalized	 Phase  	Normalized
 Number 	  [Hz]   	Component	 Component	[degree]	Phase [deg]
    1   	2.200e+04	2.528e+01	1.000e+00	   -3.48°	    0.00°
    2   	4.400e+04	2.931e-03	1.160e-04	  124.56°	  128.04°
    3   	6.600e+04	6.707e-02	2.653e-03	 -110.84°	 -107.36°
    4   	8.800e+04	1.566e-03	6.196e-05	   76.55°	   80.03°
    5   	1.100e+05	7.321e-03	2.896e-04	 -136.31°	 -132.83°
    6   	1.320e+05	1.212e-03	4.797e-05	   78.06°	   81.53°
    7   	1.540e+05	1.599e-03	6.326e-05	  112.64°	  116.12°
    8   	1.760e+05	1.151e-03	4.555e-05	  101.72°	  105.20°
    9   	1.980e+05	1.261e-03	4.990e-05	   73.47°	   76.95°
   10   	2.200e+05	1.377e-03	5.447e-05	   98.97°	  102.45°
   11   	2.420e+05	3.825e-04	1.513e-05	 -100.06°	  -96.59°
   12   	2.640e+05	9.256e-04	3.662e-05	   60.64°	   64.12°
   13   	2.860e+05	1.224e-03	4.841e-05	 -118.56°	 -115.08°
   14   	3.080e+05	7.319e-04	2.896e-05	  -24.21°	  -20.73°
   15   	3.300e+05	4.987e-04	1.973e-05	  -92.34°	  -88.87°
   16   	3.520e+05	7.863e-04	3.111e-05	  -77.15°	  -73.67°
   17   	3.740e+05	1.276e-03	5.050e-05	   13.22°	   16.69°
   18   	3.960e+05	3.108e-04	1.230e-05	 -131.49°	 -128.01°
   19   	4.180e+05	1.941e-03	7.681e-05	   15.86°	   19.34°
   20   	4.400e+05	3.963e-04	1.568e-05	   94.80°	   98.28°
   21   	4.620e+05	1.275e-03	5.046e-05	   13.51°	   16.99°
   22   	4.840e+05	4.027e-04	1.593e-05	   65.09°	   68.57°
   23   	5.060e+05	7.511e-05	2.972e-06	 -125.50°	 -122.02°
   24   	5.280e+05	8.973e-05	3.550e-06	 -160.99°	 -157.51°
   25   	5.500e+05	1.029e-03	4.072e-05	 -164.07°	 -160.59°
   26   	5.720e+05	5.014e-04	1.984e-05	 -159.15°	 -155.67°
   27   	5.940e+05	9.758e-04	3.861e-05	 -168.27°	 -164.79°
   28   	6.160e+05	4.539e-04	1.796e-05	 -171.84°	 -168.36°
   29   	6.380e+05	5.750e-05	2.275e-06	   45.56°	   49.04°
   30   	6.600e+05	1.269e-04	5.019e-06	 -175.53°	 -172.06°
Total Harmonic Distortion: 0.267909%(0.303777%)

.step freq=23000
N-Period=4
Fourier components of V(out)
DC component:-0.00745721

Harmonic	Frequency	 Fourier 	Normalized	 Phase  	Normalized
 Number 	  [Hz]   	Component	 Component	[degree]	Phase [deg]
    1   	2.300e+04	2.527e+01	1.000e+00	   -3.69°	    0.00°
    2   	4.600e+04	3.158e-03	1.250e-04	  118.50°	  122.20°
    3   	6.900e+04	8.124e-02	3.215e-03	 -112.59°	 -108.89°
    4   	9.200e+04	1.827e-03	7.230e-05	   69.99°	   73.68°
    5   	1.150e+05	9.733e-03	3.851e-04	 -140.94°	 -137.24°
    6   	1.380e+05	1.355e-03	5.363e-05	   69.34°	   73.04°
    7   	1.610e+05	1.949e-03	7.711e-05	  113.90°	  117.59°
    8   	1.840e+05	1.212e-03	4.795e-05	   93.86°	   97.56°
    9   	2.070e+05	1.458e-03	5.768e-05	   65.99°	   69.68°
   10   	2.300e+05	1.439e-03	5.693e-05	   92.32°	   96.02°
   11   	2.530e+05	4.333e-04	1.715e-05	  -89.18°	  -85.49°
   12   	2.760e+05	9.607e-04	3.802e-05	   52.53°	   56.22°
   13   	2.990e+05	1.327e-03	5.251e-05	 -119.27°	 -115.58°
   14   	3.220e+05	7.884e-04	3.120e-05	  -33.93°	  -30.23°
   15   	3.450e+05	6.121e-04	2.422e-05	  -94.12°	  -90.43°
   16   	3.680e+05	8.492e-04	3.361e-05	  -87.11°	  -83.42°
   17   	3.910e+05	1.311e-03	5.187e-05	    4.98°	    8.68°
   18   	4.140e+05	3.624e-04	1.434e-05	 -145.25°	 -141.56°
   19   	4.370e+05	1.997e-03	7.901e-05	   10.00°	   13.70°
   20   	4.600e+05	4.336e-04	1.716e-05	   93.21°	   96.90°
   21   	4.830e+05	1.333e-03	5.275e-05	    7.97°	   11.66°
   22   	5.060e+05	4.093e-04	1.620e-05	   63.68°	   67.37°
   23   	5.290e+05	1.030e-04	4.075e-06	 -118.82°	 -115.13°
   24   	5.520e+05	1.400e-04	5.540e-06	  176.22°	  179.91°
   25   	5.750e+05	1.148e-03	4.543e-05	 -168.90°	 -165.21°
   26   	5.980e+05	5.300e-04	2.097e-05	 -173.11°	 -169.42°
   27   	6.210e+05	1.127e-03	4.460e-05	 -177.74°	 -174.05°
   28   	6.440e+05	4.432e-04	1.754e-05	  174.63°	  178.32°
   29   	6.670e+05	1.675e-04	6.629e-06	   81.44°	   85.13°
   30   	6.900e+05	9.298e-05	3.680e-06	  175.24°	  178.93°
Total Harmonic Distortion: 0.324750%(0.358621%)

.step freq=24000
N-Period=4
Fourier components of V(out)
DC component:-0.00691775

Harmonic	Frequency	 Fourier 	Normalized	 Phase  	Normalized
 Number 	  [Hz]   	Component	 Component	[degree]	Phase [deg]
    1   	2.400e+04	2.526e+01	1.000e+00	   -3.92°	    0.00°
    2   	4.800e+04	3.446e-03	1.364e-04	  111.52°	  115.45°
    3   	7.200e+04	9.852e-02	3.900e-03	 -114.55°	 -110.62°
    4   	9.600e+04	2.149e-03	8.508e-05	   62.97°	   66.90°
    5   	1.200e+05	1.303e-02	5.158e-04	 -146.06°	 -142.13°
    6   	1.440e+05	1.529e-03	6.054e-05	   60.07°	   63.99°
    7   	1.680e+05	2.499e-03	9.892e-05	  115.62°	  119.54°
    8   	1.920e+05	1.273e-03	5.040e-05	   85.08°	   89.00°
    9   	2.160e+05	1.710e-03	6.768e-05	   58.93°	   62.86°
   10   	2.400e+05	1.490e-03	5.897e-05	   85.10°	   89.02°
   11   	2.640e+05	5.248e-04	2.077e-05	  -80.46°	  -76.54°
   12   	2.880e+05	9.809e-04	3.883e-05	   43.83°	   47.76°
   13   	3.120e+05	1.451e-03	5.745e-05	 -120.43°	 -116.50°
   14   	3.360e+05	8.368e-04	3.312e-05	  -44.74°	  -40.81°
   15   	3.600e+05	7.448e-04	2.948e-05	  -97.91°	  -93.99°
   16   	3.840e+05	9.042e-04	3.579e-05	  -98.23°	  -94.30°
   17   	4.080e+05	1.325e-03	5.246e-05	   -3.51°	    0.41°
   18   	4.320e+05	4.150e-04	1.643e-05	 -160.61°	 -156.68°
   19   	4.560e+05	2.040e-03	8.075e-05	    4.45°	    8.37°
   20   	4.800e+05	4.886e-04	1.934e-05	   89.51°	   93.43°
   21   	5.040e+05	1.399e-03	5.536e-05	    2.74°	    6.66°
   22   	5.280e+05	4.256e-04	1.685e-05	   60.96°	   64.88°
   23   	5.520e+05	1.367e-04	5.410e-06	 -116.82°	 -112.90°
   24   	5.760e+05	1.936e-04	7.664e-06	  161.37°	  165.30°
   25   	6.000e+05	1.288e-03	5.099e-05	 -174.45°	 -170.52°
   26   	6.240e+05	5.626e-04	2.227e-05	  172.78°	  176.70°
   27   	6.480e+05	1.294e-03	5.120e-05	  172.24°	  176.17°
   28   	6.720e+05	4.290e-04	1.698e-05	  159.66°	  163.59°
   29   	6.960e+05	3.129e-04	1.238e-05	   77.10°	   81.02°
   30   	7.200e+05	4.422e-05	1.750e-06	  167.40°	  171.32°
Total Harmonic Distortion: 0.394361%(0.426194%)

.step freq=25000
N-Period=4
Fourier components of V(out)
DC component:-0.00632775

Harmonic	Frequency	 Fourier 	Normalized	 Phase  	Normalized
 Number 	  [Hz]   	Component	 Component	[degree]	Phase [deg]
    1   	2.500e+04	2.525e+01	1.000e+00	   -4.17°	    0.00°
    2   	5.000e+04	3.841e-03	1.521e-04	  103.55°	  107.72°
    3   	7.500e+04	1.198e-01	4.744e-03	 -116.77°	 -112.60°
    4   	1.000e+05	2.554e-03	1.011e-04	   55.40°	   59.57°
    5   	1.250e+05	1.758e-02	6.963e-04	 -151.79°	 -147.62°
    6   	1.500e+05	1.728e-03	6.844e-05	   49.65°	   53.82°
    7   	1.750e+05	3.414e-03	1.352e-04	  116.64°	  120.81°
    8   	2.000e+05	1.310e-03	5.189e-05	   75.36°	   79.53°
    9   	2.250e+05	2.071e-03	8.200e-05	   52.25°	   56.42°
   10   	2.500e+05	1.528e-03	6.049e-05	   77.92°	   82.09°
   11   	2.750e+05	6.698e-04	2.652e-05	  -73.25°	  -69.08°
   12   	3.000e+05	1.002e-03	3.967e-05	   35.79°	   39.96°
   13   	3.250e+05	1.603e-03	6.348e-05	 -122.02°	 -117.85°
   14   	3.500e+05	8.742e-04	3.461e-05	  -55.00°	  -50.83°
   15   	3.750e+05	8.861e-04	3.508e-05	 -104.12°	  -99.95°
   16   	4.000e+05	9.576e-04	3.792e-05	 -109.60°	 -105.43°
   17   	4.250e+05	1.312e-03	5.194e-05	  -11.60°	   -7.43°
   18   	4.500e+05	4.872e-04	1.929e-05	 -174.47°	 -170.29°
   19   	4.750e+05	2.075e-03	8.217e-05	   -0.93°	    3.24°
   20   	5.000e+05	5.502e-04	2.179e-05	   86.47°	   90.64°
   21   	5.250e+05	1.469e-03	5.815e-05	   -3.12°	    1.05°
   22   	5.500e+05	4.646e-04	1.840e-05	   58.58°	   62.75°
   23   	5.750e+05	1.894e-04	7.498e-06	 -117.31°	 -113.14°
   24   	6.000e+05	2.296e-04	9.093e-06	  141.90°	  146.08°
   25   	6.250e+05	1.439e-03	5.698e-05	  179.08°	  183.25°
   26   	6.500e+05	5.635e-04	2.231e-05	  159.13°	  163.31°
   27   	6.750e+05	1.460e-03	5.781e-05	  160.94°	  165.11°
   28   	7.000e+05	4.047e-04	1.603e-05	  146.93°	  151.10°
   29   	7.250e+05	4.897e-04	1.939e-05	   66.10°	   70.27°
   30   	7.500e+05	2.196e-05	8.697e-07	 -153.32°	 -149.15°
Total Harmonic Distortion: 0.480523%(0.510014%)



Measurement: vrms
  step	RMS(v(out))	FROM	TO
     1	0.000421708	0.005	0.01
     2	17.9	0.005	0.01
     3	17.901	0.005	0.01
     4	17.901	0.005	0.01
     5	17.9007	0.005	0.01
     6	17.9004	0.005	0.01
     7	17.8999	0.005	0.01
     8	17.8993	0.005	0.01
     9	17.8986	0.005	0.01
    10	17.8978	0.005	0.01
    11	17.8969	0.005	0.01
    12	17.8959	0.005	0.01
    13	17.8947	0.005	0.01
    14	17.8934	0.005	0.01
    15	17.892	0.005	0.01
    16	17.8904	0.005	0.01
    17	17.8887	0.005	0.01
    18	17.8867	0.005	0.01
    19	17.8846	0.005	0.01
    20	17.8822	0.005	0.01
    21	17.8794	0.005	0.01
    22	17.8763	0.005	0.01
    23	17.8728	0.005	0.01
    24	17.8687	0.005	0.01
    25	17.8639	0.005	0.01
    26	17.858	0.005	0.01

Measurement: pout
  step	AVG(v(out)*i(rl))	FROM	TO
     1	2.22297e-008	0.005	0.01
     2	40.0512	0.005	0.01
     3	40.0557	0.005	0.01
     4	40.0556	0.005	0.01
     5	40.0545	0.005	0.01
     6	40.0528	0.005	0.01
     7	40.0507	0.005	0.01
     8	40.0481	0.005	0.01
     9	40.045	0.005	0.01
    10	40.0414	0.005	0.01
    11	40.0373	0.005	0.01
    12	40.0327	0.005	0.01
    13	40.0276	0.005	0.01
    14	40.0219	0.005	0.01
    15	40.0155	0.005	0.01
    16	40.0084	0.005	0.01
    17	40.0006	0.005	0.01
    18	39.9919	0.005	0.01
    19	39.9822	0.005	0.01
    20	39.9714	0.005	0.01
    21	39.9593	0.005	0.01
    22	39.9455	0.005	0.01
    23	39.9296	0.005	0.01
    24	39.9113	0.005	0.01
    25	39.8896	0.005	0.01
    26	39.8635	0.005	0.01

Measurement: vout_max
  step	MAX(v(out))	FROM	TO
     1	-0.000421707	0	0.01
     2	25.1321	0	0.01
     3	25.2255	0	0.01
     4	25.2556	0	0.01
     5	25.2702	0	0.01
     6	25.2786	0	0.01
     7	25.2838	0	0.01
     8	25.2873	0	0.01
     9	25.2895	0	0.01
    10	25.2909	0	0.01
    11	25.2916	0	0.01
    12	25.2919	0	0.01
    13	25.2918	0	0.01
    14	25.2914	0	0.01
    15	25.2905	0	0.01
    16	25.2896	0	0.01
    17	25.2883	0	0.01
    18	25.2868	0	0.01
    19	25.2852	0	0.01
    20	25.2834	0	0.01
    21	25.2813	0	0.01
    22	25.2792	0	0.01
    23	25.2767	0	0.01
    24	25.2742	0	0.01
    25	25.2715	0	0.01
    26	25.2685	0	0.01


Date: Sun Dec 08 19:10:08 2019
Total elapsed time: 1392.609 seconds.

tnom = 27
temp = 27
method = modified trap
totiter = 531230
traniter = 529122
tranpoints = 237124
accept = 225211
rejected = 11913
matrix size = 103
fillins = 180
Matrix Compiler1: 23.94 KB object code size  14.7/11.7/[7.9]
Matrix Compiler2: 14.49 KB object code size  6.6/8.0/[6.6]

